Time,FZ,C3,CZ,C4,PZ,PO7,OZ,PO8,AccX,AccY,AccZ,Gyro1,Gyro2,Gyro3,Battery,Counter,Validation
483835.1743657,289253.125,305526.90625,317443.15625,330518.65625,325208.78125,271030.5625,265167.875,272447.46875,-0.055908203125,0.865234375,-0.51513671875,3.082275152206421,1.1291502714157104,-0.0610351525247097,60.0,1293191.0,1.0
483835.1792417,292199.8125,304640.15625,315141.28125,328529.0,323108.15625,270767.4375,262673.78125,271692.96875,-0.0556640625,0.86572265625,-0.515625,2.990722417831421,1.0986326932907104,0.0,60.0,1293192.0,1.0
483835.1792565,291611.59375,303108.8125,311211.75,325924.46875,320575.71875,270583.0,260264.0,271005.0,-0.05419921875,0.8642578125,-0.516845703125,2.807616949081421,1.0375975370407104,0.1525878757238388,60.0,1293193.0,1.0
483835.1817124,288541.8125,303076.96875,311024.1875,326266.5625,321038.5625,270729.875,261180.5,271319.15625,-0.053955078125,0.86376953125,-0.518798828125,2.868652105331421,1.0681151151657104,0.1525878757238388,60.0,1293194.0,1.0
483835.1906046,286985.3125,304571.6875,314904.0,329147.4375,323946.34375,271013.125,264270.40625,272230.75,-0.05517578125,0.86572265625,-0.515625,2.838134527206421,1.0681151151657104,0.1220703050494194,60.0,1293195.0,1.0
483835.1931368,289201.09375,305515.8125,317395.15625,330505.0625,325213.6875,271035.75,265183.4375,272454.28125,-0.056396484375,0.865478515625,-0.517822265625,2.655029058456421,1.1291502714157104,0.03051757626235485,60.0,1293196.0,1.0
483835.1956297,292141.59375,304621.46875,315094.78125,328509.6875,323104.40625,270763.9375,262680.21875,271688.25,-0.05517578125,0.8671875,-0.515625,2.502441167831421,1.2207030057907104,0.03051757626235485,60.0,1293197.0,1.0
483835.1956449,291567.0625,303080.625,311143.90625,325880.21875,320546.90625,270567.0,260239.3125,270988.0,-0.0537109375,0.8642578125,-0.512939453125,2.288818120956421,1.0681151151657104,0.03051757626235485,60.0,1293198.0,1.0
483835.1979618,288507.65625,303041.375,310929.59375,326196.625,320983.6875,270713.78125,261131.328125,271294.9375,-0.054443359375,0.865478515625,-0.5126953125,2.105712652206421,1.0681151151657104,0.0610351525247097,60.0,1293199.0,1.0
483835.2218225,286949.03125,304545.3125,314809.9375,329081.25,323890.03125,271004.90625,264226.5,272210.8125,-0.05419921875,0.864990234375,-0.5166015625,2.014159917831421,1.1291502714157104,-0.0610351525247097,60.0,1293200.0,1.0
483835.2294996,289170.78125,305510.53125,317342.3125,330461.34375,325180.875,271031.8125,265156.15625,272447.46875,-0.053466796875,0.865234375,-0.516357421875,1.8005369901657104,1.2207030057907104,-0.0610351525247097,60.0,1293201.0,1.0
483835.2295309,292135.09375,304630.40625,315075.03125,328484.46875,323089.21875,270767.25,262663.78125,271686.0,-0.0537109375,0.86328125,-0.51611328125,1.8310545682907104,1.1596678495407104,-0.0610351525247097,60.0,1293202.0,1.0
483835.2295378,291586.65625,303089.59375,311118.5,325854.125,320523.9375,270572.96875,260213.921875,270981.03125,-0.0537109375,0.863037109375,-0.515625,1.5869139432907104,1.2512205839157104,0.03051757626235485,60.0,1293203.0,1.0
483835.2332205,288549.0625,303054.1875,310893.1875,326171.78125,320956.40625,270720.9375,261100.125,271294.59375,-0.05419921875,0.859619140625,-0.51904296875,1.4953612089157104,1.2207030057907104,-0.0610351525247097,60.0,1293204.0,1.0
483835.2332548,286975.65625,304554.4375,314771.9375,329054.875,323865.25,271000.96875,264193.96875,272207.875,-0.051025390625,0.861083984375,-0.517822265625,1.4343260526657104,1.2512205839157104,-0.03051757626235485,60.0,1293205.0,1.0
483835.2332619,289158.53125,305516.625,317316.09375,330440.0625,325164.78125,271029.40625,265137.3125,272440.96875,-0.054931640625,0.862548828125,-0.516845703125,1.3427733182907104,1.2817381620407104,-0.0610351525247097,60.0,1293206.0,1.0
483835.2355389,292134.09375,304654.28125,315080.9375,328480.0,323095.8125,270784.4375,262669.3125,271694.21875,-0.053466796875,0.859619140625,-0.5205078125,1.1901854276657104,1.3122557401657104,-0.1220703050494194,60.0,1293207.0,1.0
483835.2380194,291599.1875,303102.0,311109.375,325824.53125,320509.8125,270595.0625,260196.671875,270979.25,-0.0546875,0.857666015625,-0.520263671875,1.0986326932907104,1.4343260526657104,-0.1525878757238388,60.0,1293208.0,1.0
483835.2406799,288550.65625,303040.59375,310842.5,326100.25,320903.375,270726.21875,261044.25,271271.875,-0.052978515625,0.85595703125,-0.519287109375,1.0681151151657104,1.4343260526657104,-0.1220703050494194,60.0,1293209.0,1.0
483835.2431935,286971.46875,304549.59375,314723.21875,328984.96875,323818.5,271005.25,264147.84375,272195.34375,-0.052978515625,0.8564453125,-0.5185546875,1.1596678495407104,1.4953612089157104,-0.2746581733226776,60.0,1293210.0,1.0
483835.2455801,289131.09375,305514.9375,317284.71875,330395.375,325137.15625,271022.4375,265114.84375,272434.4375,-0.052734375,0.85791015625,-0.518798828125,1.2817381620407104,1.4648436307907104,-0.3356933295726776,60.0,1293211.0,1.0
483835.2718739,292102.28125,304645.875,315050.96875,328441.375,323061.59375,270756.78125,262641.6875,271673.75,-0.052001953125,0.857421875,-0.517578125,1.1596678495407104,1.4648436307907104,-0.3356933295726776,60.0,1293212.0,1.0
483835.2758402,291602.75,303102.0,311081.40625,325792.4375,320473.34375,270561.25,260161.71875,270958.5,-0.051513671875,0.85888671875,-0.515625,1.2512205839157104,1.4648436307907104,-0.2136230319738388,60.0,1293213.0,1.0
483835.2758806,288581.25,303048.375,310802.4375,326070.9375,320861.1875,270716.90625,261001.953125,271259.96875,-0.051513671875,0.859130859375,-0.518310546875,1.1596678495407104,1.5563963651657104,-0.2746581733226776,60.0,1293214.0,1.0
483835.2758894,286972.53125,304539.65625,314655.0,328943.03125,323754.40625,271001.78125,264086.5,272167.0,-0.0537109375,0.859375,-0.51904296875,1.2817381620407104,1.5869139432907104,-0.1220703050494194,60.0,1293215.0,1.0
483835.2758988,289118.75,305518.6875,317242.875,330382.75,325098.09375,271035.65625,265079.28125,272419.0625,-0.054931640625,0.85986328125,-0.518798828125,1.4038084745407104,1.7089842557907104,-0.0915527269244194,60.0,1293216.0,1.0
483835.2782307,292104.40625,304662.96875,315041.25,328461.03125,323055.5,270771.375,262632.125,271678.03125,-0.05615234375,0.8603515625,-0.51904296875,1.3427733182907104,1.7700194120407104,-0.03051757626235485,60.0,1293217.0,1.0
483835.2782722,291613.65625,303103.0,311054.21875,325800.125,320455.53125,270564.125,260135.78125,270954.21875,-0.054443359375,0.858642578125,-0.51708984375,1.3732908964157104,1.7700194120407104,0.0610351525247097,60.0,1293218.0,1.0
483835.2805589,288583.9375,303025.5625,310736.28125,326053.6875,320818.09375,270703.6875,260947.953125,271239.59375,-0.053955078125,0.861083984375,-0.51708984375,1.2512205839157104,1.8920897245407104,0.1525878757238388,60.0,1293219.0,1.0
483835.2830556,286971.375,304526.53125,314593.5,328942.6875,323723.625,270999.34375,264047.0625,272163.25,-0.054931640625,0.86279296875,-0.51953125,1.2207030057907104,1.8310545682907104,0.1831054538488388,60.0,1293220.0,1.0
483835.2856613,289086.84375,305502.5,317191.75,330397.6875,325079.84375,271035.3125,265057.625,272415.125,-0.052490234375,0.863037109375,-0.518798828125,1.1901854276657104,1.7089842557907104,0.1525878757238388,60.0,1293221.0,1.0
483835.2941032,292061.75,304635.0625,314992.25,328481.34375,323035.28125,270774.0625,262616.375,271667.84375,-0.0537109375,0.862060546875,-0.51708984375,1.0681151151657104,1.8005369901657104,0.2441406100988388,60.0,1293222.0,1.0
483835.294144,291599.875,303077.96875,310998.25,325820.21875,320428.53125,270569.5,260117.359375,270947.15625,-0.0537109375,0.862548828125,-0.517578125,1.0375975370407104,1.8310545682907104,0.3662109076976776,60.0,1293223.0,1.0
483835.346964,288576.59375,302990.15625,310641.53125,326047.15625,320763.0,270705.46875,260906.65625,271225.8125,-0.053955078125,0.858154296875,-0.5185546875,1.0375975370407104,1.8920897245407104,0.4272460639476776,60.0,1293224.0,1.0
483835.3470043,286938.65625,304479.78125,314477.53125,328918.90625,323655.15625,271003.5625,264002.625,272146.625,-0.055419921875,0.8583984375,-0.5166015625,1.0681151151657104,1.9226073026657104,0.3967284858226776,60.0,1293225.0,1.0
483835.349437,289034.53125,305469.25,317099.46875,330392.15625,325031.21875,271042.0,265042.0,272412.15625,-0.05712890625,0.86083984375,-0.517578125,1.0986326932907104,1.8920897245407104,0.3967284858226776,60.0,1293226.0,1.0
483835.3568995,292012.6875,304609.15625,314914.5625,328483.5,322996.5,270774.0625,262610.84375,271667.125,-0.057373046875,0.860107421875,-0.51904296875,1.0681151151657104,1.7395018339157104,0.3967284858226776,60.0,1293227.0,1.0
483835.3585331,291580.21875,303059.1875,310916.8125,325814.40625,320391.53125,270578.78125,260109.40625,270947.21875,-0.057373046875,0.8583984375,-0.51806640625,1.0375975370407104,1.7700194120407104,0.3356933295726776,60.0,1293228.0,1.0
483835.383498,288559.78125,302961.46875,310533.78125,326016.65625,320709.5625,270708.96875,260883.21875,271221.71875,-0.05517578125,0.857421875,-0.522705078125,1.0375975370407104,1.6784666776657104,0.3967284858226776,60.0,1293229.0,1.0
483835.4081608,286901.0,304449.28125,314359.25,328880.8125,323598.375,270989.6875,263975.375,272141.96875,-0.054931640625,0.8583984375,-0.522216796875,1.0070799589157104,1.7395018339157104,0.3356933295726776,60.0,1293230.0,1.0
483835.4105387,288975.25,305446.4375,317002.65625,330369.625,324992.78125,271025.65625,265033.9375,272410.46875,-0.05517578125,0.85986328125,-0.522705078125,1.0070799589157104,1.8005369901657104,0.2746581733226776,60.0,1293231.0,1.0
483835.4131748,291968.34375,304603.96875,314852.40625,328482.40625,322979.40625,270767.71875,262622.375,271672.3125,-0.055419921875,0.859619140625,-0.517578125,1.0070799589157104,1.9226073026657104,0.4272460639476776,60.0,1293232.0,1.0
483835.4157056,291544.1875,303040.125,310846.09375,325804.75,320357.1875,270567.78125,260107.984375,270950.1875,-0.0517578125,0.86083984375,-0.52001953125,0.9765624403953552,1.9836424589157104,0.3662109076976776,60.0,1293233.0,1.0
483835.4180384,288535.46875,302940.0,310447.5,326005.03125,320665.46875,270709.78125,260873.84375,271227.15625,-0.0517578125,0.8623046875,-0.521484375,0.8239745497703552,2.014159917831421,0.3967284858226776,60.0,1293234.0,1.0
483835.4255508,286868.5625,304433.0,314271.71875,328881.96875,323557.15625,270999.625,263972.875,272148.0625,-0.05322265625,0.86083984375,-0.522216796875,0.6713866591453552,2.044677495956421,0.5187987685203552,60.0,1293235.0,1.0
483835.4280472,288925.90625,305433.5625,316935.78125,330389.28125,324965.15625,271032.875,265049.15625,272419.59375,-0.052978515625,0.861572265625,-0.52001953125,0.6713866591453552,2.197265386581421,0.5798339247703552,60.0,1293236.0,1.0
483835.4306838,291926.59375,304599.21875,314807.4375,328518.28125,322964.9375,270771.625,262647.40625,271683.78125,-0.05322265625,0.858642578125,-0.521240234375,0.6713866591453552,2.258300542831421,0.4577636420726776,60.0,1293237.0,1.0
483835.4331208,291526.125,303036.375,310793.0625,325836.78125,320332.96875,270565.90625,260113.4375,270953.59375,-0.05419921875,0.8564453125,-0.523193359375,0.6103515028953552,2.197265386581421,0.4272460639476776,60.0,1293238.0,1.0
483835.4380492,288525.625,302928.65625,310357.46875,326008.0625,320615.21875,270698.0625,260846.484375,271217.25,-0.053955078125,0.85498046875,-0.522216796875,0.7324218153953552,2.319335699081421,0.3967284858226776,60.0,1293239.0,1.0
483835.4456999,286852.90625,304432.375,314179.4375,328878.125,323514.875,270995.6875,263948.1875,272139.46875,-0.052978515625,0.853759765625,-0.52294921875,0.6713866591453552,2.227782964706421,0.3967284858226776,60.0,1293240.0,1.0
483835.4506847,288896.75,305452.4375,316870.78125,330402.15625,324949.5,271040.65625,265048.53125,272418.875,-0.052734375,0.852783203125,-0.52490234375,0.6408690810203552,2.288818120956421,0.3967284858226776,60.0,1293241.0,1.0
483835.4531982,291913.09375,304629.53125,314768.53125,328543.84375,322966.0,270772.8125,262663.3125,271689.84375,-0.052001953125,0.8515625,-0.52197265625,0.7934569716453552,2.471923589706421,0.3967284858226776,60.0,1293242.0,1.0
483835.4556548,291542.59375,303068.5625,310759.1875,325857.0625,320337.09375,270565.90625,260133.015625,270966.53125,-0.052001953125,0.852783203125,-0.521240234375,0.8544921278953552,2.532958745956421,0.4272460639476776,60.0,1293243.0,1.0
483835.4581707,288543.875,302943.40625,310291.40625,325994.75,320592.0625,270694.125,260841.46875,271217.40625,-0.05078125,0.854736328125,-0.52294921875,0.8544921278953552,2.563476324081421,0.4272460639476776,60.0,1293244.0,1.0
483835.4630446,286847.1875,304431.03125,314096.90625,328846.5625,323475.90625,270981.3125,263932.625,272133.21875,-0.0498046875,0.8564453125,-0.5244140625,0.8544921278953552,2.655029058456421,0.4577636420726776,60.0,1293245.0,1.0
483835.4656249,288868.0625,305452.6875,316812.9375,330394.03125,324927.0625,271028.40625,265051.90625,272418.25,-0.050048828125,0.857421875,-0.52490234375,0.9460448622703552,2.746581792831421,0.3356933295726776,60.0,1293246.0,1.0
483835.4681185,291891.53125,304635.78125,314731.625,328558.3125,322957.25,270779.25,262677.0,271695.46875,-0.049072265625,0.859619140625,-0.522705078125,0.8239745497703552,2.838134527206421,0.3051757514476776,60.0,1293247.0,1.0
483835.4732069,291536.40625,303063.21875,310696.78125,325856.1875,320302.40625,270569.9375,260117.359375,270953.75,-0.04931640625,0.859619140625,-0.52197265625,0.8239745497703552,2.899169683456421,0.3051757514476776,60.0,1293248.0,1.0
483835.4755709,288554.25,302934.46875,310209.875,325987.0625,320547.8125,270700.28125,260814.828125,271210.09375,-0.048583984375,0.861328125,-0.521484375,0.7629393935203552,2.990722417831421,0.3356933295726776,60.0,1293249.0,1.0
483835.4781375,286853.90625,304430.59375,314018.875,328848.0,323440.5,270998.09375,263917.0625,272139.46875,-0.050537109375,0.861083984375,-0.521728515625,0.7629393935203552,3.082275152206421,0.3356933295726776,60.0,1293250.0,1.0
483835.4856481,288865.03125,305471.84375,316768.9375,330418.625,324922.3125,271048.71875,265065.3125,272436.5,-0.04931640625,0.863525390625,-0.521240234375,0.6103515028953552,3.356933355331421,0.1831054538488388,60.0,1293251.0,1.0
483835.4956844,291900.46875,304668.96875,314722.5,328604.53125,322980.3125,270786.84375,262710.09375,271716.65625,-0.05029296875,0.8642578125,-0.520751953125,0.4272460639476776,3.417968511581421,0.0915527269244194,60.0,1293252.0,1.0
483835.5006447,291561.34375,303087.4375,310681.03125,325891.40625,320320.53125,270557.59375,260136.3125,270964.5,-0.05126953125,0.86669921875,-0.517333984375,0.2746581733226776,3.570556402206421,0.0610351525247097,60.0,1293253.0,1.0
483835.5022359,288570.34375,302939.8125,310148.34375,325986.625,320530.5625,270674.71875,260798.828125,271201.875,-0.050048828125,0.86767578125,-0.518310546875,0.0915527269244194,3.784179449081421,-0.1220703050494194,60.0,1293254.0,1.0
483835.5107827,286856.84375,304443.5625,313945.28125,328848.34375,323419.65625,270981.46875,263900.4375,272133.03125,-0.050537109375,0.8671875,-0.521484375,0.0,4.028319835662842,-0.2746581733226776,60.0,1293255.0,1.0
483835.5108225,288838.09375,305488.28125,316709.125,330431.75,324914.8125,271024.84375,265064.625,272425.84375,-0.046875,0.865234375,-0.523193359375,-0.1525878757238388,4.211425304412842,-0.3356933295726776,60.0,1293256.0,1.0
483835.5108326,291874.71875,304695.78125,314679.0625,328627.0,322981.125,270769.03125,262723.03125,271708.09375,-0.04541015625,0.863525390625,-0.5263671875,-0.2746581733226776,4.455565929412842,-0.4882812201976776,60.0,1293257.0,1.0
483835.5130411,291569.65625,303126.3125,310638.21875,325914.65625,320321.53125,270563.5,260149.640625,270967.8125,-0.04248046875,0.861083984375,-0.525634765625,-0.1220703050494194,4.791259288787842,-0.5493163466453552,60.0,1293258.0,1.0
483835.5181438,288604.75,302986.03125,310093.1875,325995.46875,320528.0625,270702.71875,260808.84375,271215.28125,-0.044189453125,0.857666015625,-0.52392578125,0.0,5.065917491912842,-0.6103515028953552,60.0,1293259.0,1.0
483835.520711,286864.8125,304476.5625,313871.09375,328828.6875,323402.03125,270996.0625,263898.9375,272133.40625,-0.043212890625,0.853759765625,-0.525390625,-0.03051757626235485,5.218505382537842,-0.7324218153953552,60.0,1293260.0,1.0
483835.5207515,288814.875,305517.15625,316648.6875,330411.90625,324902.1875,271028.3125,265075.53125,272431.9375,-0.042724609375,0.853271484375,-0.5263671875,0.1831054538488388,5.706786632537842,-0.9155272841453552,60.0,1293261.0,1.0
483835.5231975,291854.875,304719.03125,314634.71875,328617.25,322975.65625,270774.5,262746.125,271723.09375,-0.040771484375,0.853515625,-0.524658203125,0.3662109076976776,6.134032726287842,-1.0681151151657104,60.0,1293262.0,1.0
483835.5255614,291565.28125,303132.5,310581.09375,325889.34375,320298.28125,270564.46875,260157.6875,270978.78125,-0.040771484375,0.85546875,-0.522705078125,0.4882812201976776,6.500243663787842,-1.0681151151657104,60.0,1293263.0,1.0
483835.528185,288598.84375,302968.78125,310002.0,325940.40625,320473.6875,270695.09375,260786.390625,271216.625,-0.038818359375,0.857666015625,-0.52197265625,0.5493163466453552,6.927489757537842,-1.1596678495407104,60.0,1293264.0,1.0
483835.5332009,286847.28125,304453.03125,313769.0625,328767.25,323340.25,270995.6875,263874.96875,272139.75,-0.03857421875,0.857421875,-0.52099609375,0.6408690810203552,7.324218273162842,-1.2512205839157104,60.0,1293265.0,1.0
483835.5332412,288807.0,305526.375,316600.84375,330403.59375,324891.375,271056.75,265102.53125,272471.625,-0.03759765625,0.857666015625,-0.519287109375,0.7629393935203552,7.781981945037842,-1.2817381620407104,60.0,1293266.0,1.0
483835.5382954,291843.0,304721.53125,314601.96875,328630.84375,322976.8125,270789.96875,262779.09375,271759.0625,-0.037109375,0.857666015625,-0.5205078125,0.7324218153953552,8.270262718200684,-1.3732908964157104,60.0,1293267.0,1.0
483835.5383365,291568.0625,303123.8125,310531.09375,325902.5625,320283.875,270568.875,260172.53125,271001.5,-0.037109375,0.857177734375,-0.518798828125,0.7324218153953552,8.728026390075684,-1.4648436307907104,60.0,1293268.0,1.0
483835.5406095,288619.25,302964.40625,309925.5625,325940.84375,320444.09375,270694.21875,260777.640625,271225.5625,-0.037109375,0.8564453125,-0.520751953125,0.5798339247703552,9.246825218200684,-1.5563963651657104,60.0,1293269.0,1.0
483835.5406505,286872.125,304474.6875,313702.8125,328779.0625,323330.59375,271002.40625,263877.375,272154.40625,-0.0390625,0.853271484375,-0.52099609375,0.7019042372703552,9.704588890075684,-1.7700194120407104,60.0,1293270.0,1.0
483835.5430684,288791.625,305540.03125,316541.65625,330419.5,324886.8125,271055.40625,265110.21875,272472.59375,-0.043212890625,0.850341796875,-0.5224609375,0.8850097060203552,10.192870140075684,-1.8920897245407104,60.0,1293271.0,1.0
483835.5455596,291815.34375,304727.15625,314553.15625,328658.625,322973.875,270788.8125,262790.71875,271752.875,-0.04443359375,0.8505859375,-0.52392578125,0.9460448622703552,10.528563499450684,-2.136230230331421,60.0,1293272.0,1.0
483835.5480379,291560.28125,303118.375,310471.28125,325927.78125,320269.21875,270573.0625,260171.640625,270991.5,-0.04541015625,0.853515625,-0.523193359375,1.0375975370407104,10.925292015075684,-2.441406011581421,60.0,1293273.0,1.0
483835.5506814,288627.375,302951.71875,309842.40625,325946.03125,320412.375,270707.4375,260759.390625,271215.0,-0.04541015625,0.85498046875,-0.52294921875,1.1596678495407104,11.230467796325684,-2.593993902206421,60.0,1293274.0,1.0
483835.5531726,286862.21875,304459.28125,313605.1875,328762.09375,323284.1875,271013.03125,263844.125,272137.875,-0.0458984375,0.856689453125,-0.521484375,1.1291502714157104,11.566161155700684,-2.685546636581421,60.0,1293275.0,1.0
483835.5555761,288768.46875,305541.84375,316472.8125,330425.0625,324861.78125,271072.03125,265099.5625,272468.125,-0.047607421875,0.85791015625,-0.520263671875,1.0070799589157104,11.901854515075684,-2.777099370956421,60.0,1293276.0,1.0
483835.555612,291794.96875,304730.03125,314499.78125,328687.15625,322957.15625,270796.84375,262789.21875,271748.15625,-0.048583984375,0.857421875,-0.51708984375,0.9460448622703552,12.176512718200684,-2.868652105331421,60.0,1293277.0,1.0
483835.5580451,291574.125,303129.53125,310417.46875,325958.53125,320249.0,270583.875,260163.5,270991.59375,-0.05029296875,0.858642578125,-0.52197265625,0.7934569716453552,12.390135765075684,-2.960204839706421,60.0,1293278.0,1.0
483835.5606448,288659.84375,302961.0,309765.5,325942.09375,320364.875,270713.25,260721.125,271207.40625,-0.0517578125,0.85693359375,-0.525634765625,0.7019042372703552,12.634276390075684,-3.112792730331421,60.0,1293279.0,1.0
483835.5632246,286893.6875,304477.625,313527.5,328737.03125,323230.1875,271018.9375,263799.25,272126.34375,-0.052001953125,0.85595703125,-0.526611328125,0.6408690810203552,12.847899436950684,-3.143310308456421,60.0,1293280.0,1.0
483835.5632645,288773.90625,305564.1875,316428.125,330410.9375,324827.28125,271072.40625,265078.125,272462.25,-0.05419921875,0.853515625,-0.524169921875,0.6713866591453552,13.000487327575684,-3.234863042831421,60.0,1293281.0,1.0
483835.5656703,291808.65625,304760.875,314495.40625,328704.0625,322958.5,270812.6875,262805.21875,271761.90625,-0.054931640625,0.85205078125,-0.524169921875,0.8239745497703552,13.031004905700684,-3.326415777206421,60.0,1293282.0,1.0
483835.5657128,291595.5,303135.90625,310391.1875,325959.875,320235.15625,270593.0,260159.203125,270993.09375,-0.055419921875,0.854736328125,-0.5263671875,0.8544921278953552,13.153075218200684,-3.387450933456421,60.0,1293283.0,1.0
483835.5706175,288686.03125,302954.03125,309707.84375,325908.46875,320324.46875,270716.28125,260689.21875,271197.9375,-0.0576171875,0.85546875,-0.526123046875,0.8239745497703552,13.214110374450684,-3.326415777206421,60.0,1293284.0,1.0
483835.5706577,286910.84375,304473.6875,313462.125,328684.5625,323184.15625,271021.1875,263762.84375,272115.34375,-0.058349609375,0.854248046875,-0.5224609375,0.7629393935203552,13.183592796325684,-3.356933355331421,60.0,1293285.0,1.0
483835.5756913,288774.625,305576.96875,316391.71875,330383.03125,324807.6875,271082.875,265070.6875,272457.40625,-0.0615234375,0.85595703125,-0.52490234375,0.7629393935203552,13.214110374450684,-3.417968511581421,60.0,1293286.0,1.0
483835.5782494,291800.53125,304770.78125,314472.4375,328708.34375,322950.1875,270820.53125,262810.46875,271766.8125,-0.059326171875,0.85546875,-0.5244140625,0.8544921278953552,13.183592796325684,-3.479003667831421,60.0,1293287.0,1.0
483835.5782884,291611.875,303138.9375,310361.21875,325967.5625,320221.75,270602.65625,260156.34375,271005.09375,-0.06201171875,0.857177734375,-0.5234375,0.8239745497703552,13.183592796325684,-3.417968511581421,60.0,1293288.0,1.0
483835.5805534,288718.40625,302954.5,309651.96875,325884.96875,320289.0625,270733.71875,260658.71875,271201.5,-0.065185546875,0.8583984375,-0.523193359375,0.7019042372703552,13.153075218200684,-3.417968511581421,60.0,1293289.0,1.0
483835.5805888,286939.8125,304488.4375,313403.65625,328646.46875,323143.46875,271042.4375,263721.53125,272120.0625,-0.061279296875,0.859130859375,-0.5234375,0.6103515028953552,12.969969749450684,-3.387450933456421,60.0,1293290.0,1.0
483835.5857204,288794.65625,305611.21875,316372.78125,330377.03125,324799.21875,271108.15625,265059.6875,272477.34375,-0.0625,0.85791015625,-0.525146484375,0.5493163466453552,12.786864280700684,-3.234863042831421,60.0,1293291.0,1.0
483835.5857621,291817.5,304798.6875,314477.25,328727.75,322957.96875,270845.84375,262818.0,271782.84375,-0.062255859375,0.857177734375,-0.522705078125,0.5187987685203552,12.695311546325684,-3.143310308456421,60.0,1293292.0,1.0
483835.5883844,291635.90625,303150.28125,310344.96875,325977.0625,320205.65625,270601.5,260145.078125,271005.78125,-0.061767578125,0.85791015625,-0.525634765625,0.4882812201976776,12.451170921325684,-3.051757574081421,60.0,1293293.0,1.0
483835.5905682,288749.59375,302958.96875,309609.0625,325860.8125,320246.0625,270710.65625,260616.875,271185.0625,-0.06298828125,0.860107421875,-0.519775390625,0.3356933295726776,12.298583030700684,-3.082275152206421,60.0,1293294.0,1.0
483835.5931276,286966.46875,304497.28125,313363.0625,328611.4375,323101.8125,271027.96875,263677.375,272102.46875,-0.065673828125,0.861083984375,-0.52197265625,0.3356933295726776,12.115477561950684,-3.051757574081421,60.0,1293295.0,1.0
483835.5956868,288795.09375,305620.25,316352.65625,330357.09375,324774.09375,271092.59375,265032.25,272464.03125,-0.0634765625,0.861083984375,-0.523681640625,0.2136230319738388,11.871336936950684,-3.021239995956421,60.0,1293296.0,1.0
483835.6007336,291808.65625,304795.8125,314472.4375,328729.625,322944.8125,270819.46875,262801.375,271766.65625,-0.06103515625,0.86328125,-0.522705078125,0.03051757626235485,11.749266624450684,-2.899169683456421,60.0,1293297.0,1.0
483835.6007742,291647.71875,303141.53125,310342.09375,325989.125,320192.875,270594.78125,260125.40625,270986.3125,-0.0595703125,0.861572265625,-0.52294921875,-0.03051757626235485,11.474608421325684,-2.593993902206421,60.0,1293298.0,1.0
483835.6030676,288787.875,302953.3125,309590.09375,325862.4375,320222.625,270720.84375,260581.828125,271171.46875,-0.06298828125,0.861328125,-0.526611328125,-0.1831054538488388,11.413573265075684,-2.502441167831421,60.0,1293299.0,1.0
483835.6055191,287002.03125,304503.0,313338.65625,328597.125,323073.28125,271038.25,263633.21875,272087.625,-0.06494140625,0.85888671875,-0.524169921875,-0.3662109076976776,11.199950218200684,-2.441406011581421,60.0,1293300.0,1.0
483835.6079191,288809.84375,305638.03125,316359.09375,330362.03125,324771.5625,271107.625,265013.84375,272458.9375,-0.062744140625,0.859619140625,-0.526611328125,-0.3967284858226776,10.986327171325684,-2.349853277206421,60.0,1293301.0,1.0
483835.6079599,291822.6875,304814.78125,314505.0625,328760.65625,322967.0625,270837.34375,262810.3125,271778.09375,-0.06494140625,0.859130859375,-0.52685546875,-0.3967284858226776,10.681151390075684,-2.197265386581421,60.0,1293302.0,1.0
483835.6217696,291671.78125,303139.65625,310349.15625,326000.5625,320193.125,270604.8125,260112.625,270989.875,-0.062255859375,0.859375,-0.5224609375,-0.3662109076976776,10.467528343200684,-2.075195074081421,60.0,1293303.0,1.0
483835.6270063,288828.8125,302951.4375,309572.65625,325842.3125,320202.53125,270733.375,260548.390625,271166.0,-0.063720703125,0.859130859375,-0.52685546875,-0.3967284858226776,10.162352561950684,-2.044677495956421,60.0,1293304.0,1.0
483835.6270465,287039.5,304514.0,313322.84375,328560.8125,323056.5625,271046.46875,263604.3125,272085.90625,-0.062255859375,0.858642578125,-0.527587890625,-0.3967284858226776,9.948729515075684,-1.8920897245407104,60.0,1293305.0,1.0
483835.6270563,288809.84375,305645.71875,316355.96875,330331.0,324759.96875,271106.5625,264993.53125,272451.9375,-0.063232421875,0.85693359375,-0.524658203125,-0.3356933295726776,9.704588890075684,-1.7700194120407104,60.0,1293306.0,1.0
483835.629416,291821.78125,304832.46875,314533.59375,328757.15625,322975.40625,270831.71875,262810.9375,271777.03125,-0.0634765625,0.856201171875,-0.522705078125,-0.4272460639476776,9.399413108825684,-1.7089842557907104,60.0,1293307.0,1.0
483835.633009,291700.21875,303162.1875,310375.71875,326002.71875,320202.875,270600.875,260113.609375,270996.21875,-0.06103515625,0.851318359375,-0.5224609375,-0.3967284858226776,9.246825218200684,-1.6479490995407104,60.0,1293308.0,1.0
483835.646919,288865.46875,302966.65625,309568.375,325821.65625,320186.4375,270728.1875,260523.1875,271168.59375,-0.059326171875,0.84716796875,-0.521240234375,-0.3662109076976776,8.850096702575684,-1.5258787870407104,60.0,1293309.0,1.0
483835.6469329,287050.40625,304518.125,313296.09375,328522.03125,323018.84375,271032.15625,263561.78125,272073.21875,-0.05810546875,0.845947265625,-0.52001953125,-0.2746581733226776,8.666991233825684,-1.3427733182907104,60.0,1293310.0,1.0
483835.6494069,288820.5,305678.28125,316371.0625,330327.6875,324763.53125,271104.21875,264993.8125,272458.9375,-0.0546875,0.847412109375,-0.518310546875,-0.2441406100988388,8.453368186950684,-1.1596678495407104,60.0,1293311.0,1.0
483835.6494193,291834.75,304859.65625,314565.875,328778.625,322992.375,270836.625,262826.21875,271784.96875,-0.054443359375,0.849853515625,-0.521484375,-0.0915527269244194,8.270262718200684,-1.0070799589157104,60.0,1293312.0,1.0
483835.6579828,291738.28125,303186.9375,310413.8125,326031.6875,320218.15625,270608.8125,260126.75,271010.09375,-0.052001953125,0.85205078125,-0.52294921875,0.0610351525247097,8.148192405700684,-0.9155272841453552,60.0,1293313.0,1.0
483835.6579966,288921.25,302994.09375,309595.625,325832.125,320199.46875,270724.625,260522.296875,271173.0625,-0.048828125,0.85205078125,-0.525390625,0.0,7.995604991912842,-0.8850097060203552,60.0,1293314.0,1.0
483835.6605963,287096.0,304542.53125,313310.0625,328513.53125,323029.03125,271037.0,263546.3125,272066.4375,-0.0478515625,0.8515625,-0.526123046875,0.0610351525247097,7.751464366912842,-0.7019042372703552,60.0,1293315.0,1.0
483835.6717045,288830.40625,305691.5,316391.09375,330327.0625,324773.1875,271108.6875,264978.5,272446.84375,-0.045166015625,0.850830078125,-0.526611328125,0.1831054538488388,7.812499523162842,-0.5493163466453552,60.0,1293316.0,1.0
483835.7020392,291845.03125,304879.5,314609.125,328803.125,323015.1875,270842.28125,262823.8125,271781.75,-0.04541015625,0.8515625,-0.525634765625,0.2441406100988388,7.781981945037842,-0.4577636420726776,60.0,1293317.0,1.0
483835.7020782,291756.71875,303192.75,310441.53125,326040.0,320226.21875,270599.4375,260101.890625,270991.75,-0.045166015625,0.8505859375,-0.52490234375,0.2746581733226776,7.781981945037842,-0.2441406100988388,60.0,1293318.0,1.0
483835.7020885,288948.34375,302987.21875,309585.25,325803.875,320173.8125,270712.625,260460.515625,271144.375,-0.045654296875,0.849609375,-0.5244140625,0.2746581733226776,7.751464366912842,-0.3356933295726776,60.0,1293319.0,1.0
483835.7043539,287122.84375,304550.125,313304.25,328481.0625,323006.6875,271031.53125,263486.3125,272054.0,-0.044677734375,0.8486328125,-0.524658203125,0.4272460639476776,7.751464366912842,-0.4882812201976776,60.0,1293320.0,1.0
483835.7043895,288833.625,305708.84375,316411.21875,330307.03125,324773.1875,271106.75,264938.90625,272443.90625,-0.04638671875,0.8486328125,-0.523681640625,0.4272460639476776,7.781981945037842,-0.5798339247703552,60.0,1293321.0,1.0
483835.7068923,291846.21875,304895.15625,314656.78125,328798.5625,323034.03125,270835.125,262800.90625,271783.0,-0.046875,0.849609375,-0.52490234375,0.5798339247703552,7.781981945037842,-0.7629393935203552,60.0,1293322.0,1.0
483835.7094364,291780.65625,303201.34375,310486.3125,326035.625,320238.09375,270602.21875,260074.265625,270994.25,-0.04736328125,0.84814453125,-0.5263671875,0.6713866591453552,7.720946788787842,-0.9460448622703552,60.0,1293323.0,1.0
483835.7180152,288982.78125,302985.25,309597.96875,325775.71875,320161.21875,270723.09375,260412.234375,271144.90625,-0.0458984375,0.845947265625,-0.527099609375,0.7629393935203552,7.690429210662842,-1.2207030057907104,60.0,1293324.0,1.0
483835.7558766,287155.46875,304564.34375,313317.65625,328449.96875,322999.34375,271052.5625,263447.25,272068.9375,-0.0439453125,0.8486328125,-0.52783203125,0.9765624403953552,7.659911632537842,-1.3427733182907104,60.0,1293325.0,1.0
483835.7634649,288838.03125,305728.15625,316443.5,330286.03125,324778.375,271123.8125,264918.0625,272458.5625,-0.0439453125,0.853515625,-0.52783203125,1.1291502714157104,7.568358898162842,-1.4648436307907104,60.0,1293326.0,1.0
483835.773178,291842.4375,304914.28125,314709.1875,328800.4375,323050.125,270840.40625,262796.1875,271797.9375,-0.045166015625,0.85498046875,-0.52685546875,1.2512205839157104,7.568358898162842,-1.7700194120407104,60.0,1293327.0,1.0
483835.7755667,291796.59375,303219.5625,310531.5625,326038.90625,320242.5625,270597.03125,260058.796875,271001.40625,-0.04345703125,0.85791015625,-0.52490234375,1.2817381620407104,7.507323741912842,-1.8920897245407104,60.0,1293328.0,1.0
483835.7781285,289010.03125,302990.34375,309609.59375,325756.40625,320137.0625,270712.09375,260365.296875,271143.46875,-0.044189453125,0.862548828125,-0.526611328125,1.2817381620407104,7.598876476287842,-2.075195074081421,60.0,1293329.0,1.0
483835.7807126,287158.59375,304550.40625,313302.0,328405.71875,322949.71875,271027.96875,263374.90625,272046.3125,-0.04296875,0.863037109375,-0.526611328125,1.0986326932907104,7.659911632537842,-2.075195074081421,60.0,1293330.0,1.0
483835.7807543,288828.4375,305729.5,316458.96875,330273.3125,324759.40625,271106.03125,264877.03125,272451.15625,-0.042236328125,0.865478515625,-0.52734375,1.1596678495407104,7.751464366912842,-2.227782964706421,60.0,1293331.0,1.0
483835.7831941,291842.09375,304930.375,314750.40625,328821.625,323055.40625,270840.21875,262784.1875,271805.1875,-0.042236328125,0.864501953125,-0.526611328125,1.0070799589157104,7.720946788787842,-2.319335699081421,60.0,1293332.0,1.0
483835.785568,291824.3125,303237.1875,310572.21875,326076.5625,320254.375,270610.15625,260057.28125,271015.90625,-0.043212890625,0.865234375,-0.526611328125,0.8850097060203552,7.904052257537842,-2.502441167831421,60.0,1293333.0,1.0
483835.788092,289034.53125,302984.09375,309602.875,325762.46875,320112.75,270713.25,260332.03125,271134.625,-0.043212890625,0.86474609375,-0.526611328125,0.8850097060203552,7.995604991912842,-2.563476324081421,60.0,1293334.0,1.0
483835.7881309,287186.5,304564.875,313295.65625,328412.21875,322931.3125,271041.375,263349.15625,272037.09375,-0.042724609375,0.865478515625,-0.5283203125,0.6408690810203552,8.087157249450684,-2.532958745956421,60.0,1293335.0,1.0
483835.7905335,288836.125,305754.4375,316475.9375,330295.3125,324760.59375,271119.78125,264876.0625,272445.4375,-0.044189453125,0.866455078125,-0.529052734375,0.5187987685203552,8.087157249450684,-2.471923589706421,60.0,1293336.0,1.0
483835.7930816,291843.0,304948.96875,314787.40625,328863.09375,323070.15625,270846.90625,262801.4375,271804.65625,-0.045654296875,0.864501953125,-0.52978515625,0.2746581733226776,8.178709983825684,-2.380370855331421,60.0,1293337.0,1.0
483835.7955614,291830.46875,303235.59375,310592.0625,326098.8125,320249.375,270591.46875,260053.703125,271004.09375,-0.0439453125,0.85986328125,-0.53076171875,0.2136230319738388,8.209227561950684,-2.349853277206421,60.0,1293338.0,1.0
483835.8055418,289068.5,302994.71875,309606.46875,325760.6875,320099.15625,270706.375,260318.359375,271127.21875,-0.04638671875,0.859375,-0.52734375,0.2746581733226776,8.178709983825684,-2.349853277206421,60.0,1293339.0,1.0
483835.808076,287209.375,304579.0,313281.4375,328378.15625,322904.03125,271025.03125,263322.59375,272027.4375,-0.0458984375,0.856689453125,-0.52685546875,0.2746581733226776,8.178709983825684,-2.380370855331421,60.0,1293340.0,1.0
483835.8105366,288834.0,305782.875,316475.25,330264.75,324743.875,271101.28125,264864.6875,272436.84375,-0.046630859375,0.857177734375,-0.525390625,0.2441406100988388,8.148192405700684,-2.227782964706421,60.0,1293341.0,1.0
483835.8180101,291832.53125,304982.3125,314798.6875,328850.3125,323066.21875,270836.71875,262807.1875,271795.78125,-0.047607421875,0.856201171875,-0.52734375,0.2441406100988388,8.056639671325684,-2.044677495956421,60.0,1293342.0,1.0
483835.8206652,291826.53125,303253.1875,310581.4375,326076.75,320228.90625,270586.375,260043.875,270984.25,-0.0498046875,0.85595703125,-0.526611328125,0.1525878757238388,7.934569835662842,-2.014159917831421,60.0,1293343.0,1.0
483835.8230516,289088.0,303008.65625,309580.15625,325726.625,320072.71875,270697.78125,260296.359375,271114.875,-0.0498046875,0.857177734375,-0.529052734375,0.2136230319738388,7.965087413787842,-1.8615721464157104,60.0,1293344.0,1.0
483835.8256551,287236.8125,304598.78125,313271.5,328353.84375,322897.0625,271028.5,263315.09375,272032.0,-0.051513671875,0.855224609375,-0.52783203125,0.2136230319738388,7.965087413787842,-1.7700194120407104,60.0,1293345.0,1.0
483835.8296288,288830.6875,305786.53125,316486.5,330262.40625,324757.8125,271113.09375,264875.25,272447.21875,-0.049560546875,0.85205078125,-0.5302734375,0.1831054538488388,7.812499523162842,-1.5258787870407104,60.0,1293346.0,1.0
483835.8296673,291816.0,304962.125,314829.0625,328870.8125,323097.53125,270848.15625,262831.59375,271809.90625,-0.054443359375,0.852783203125,-0.529541015625,0.3662109076976776,7.659911632537842,-1.6479490995407104,60.0,1293347.0,1.0
483835.829676,291853.53125,303245.9375,310634.28125,326122.875,320285.40625,270600.5,260083.75,271019.75,-0.05517578125,0.852783203125,-0.52880859375,0.3356933295726776,7.507323741912842,-1.4343260526657104,60.0,1293348.0,1.0
483835.8296852,289109.28125,302974.4375,309583.125,325738.0625,320086.65625,270704.59375,260291.0,271126.9375,-0.05419921875,0.853759765625,-0.52587890625,0.3356933295726776,7.202147960662842,-1.1901854276657104,60.0,1293349.0,1.0
483835.8317748,287215.1875,304541.0,313220.46875,328324.96875,322860.875,271034.5,263267.875,272015.75,-0.054443359375,0.854736328125,-0.52734375,0.3356933295726776,7.080077648162842,-0.9155272841453552,60.0,1293350.0,1.0
483835.8344502,288792.0625,305755.25,316463.875,330262.15625,324744.03125,271124.09375,264857.8125,272445.5,-0.053955078125,0.856201171875,-0.529296875,0.4272460639476776,6.866454601287842,-0.8239745497703552,60.0,1293351.0,1.0
483835.8344914,291795.15625,304964.90625,314848.46875,328912.71875,323118.0,270853.34375,262846.96875,271824.75,-0.054443359375,0.857666015625,-0.52587890625,0.2746581733226776,6.683349132537842,-0.7324218153953552,60.0,1293352.0,1.0
483835.8369019,291838.0625,303230.21875,310628.09375,326149.96875,320281.5625,270602.65625,260074.984375,271017.6875,-0.054931640625,0.854248046875,-0.52978515625,0.2136230319738388,6.500243663787842,-0.5798339247703552,60.0,1293353.0,1.0
483835.8393174,289105.34375,302951.0,309548.59375,325744.875,320062.34375,270708.59375,260261.765625,271116.75,-0.056640625,0.851318359375,-0.52978515625,0.3051757514476776,6.225585460662842,-0.4882812201976776,60.0,1293354.0,1.0
483835.8418762,287225.5625,304541.46875,313201.5,328338.03125,322860.15625,271035.375,263254.65625,272024.125,-0.0556640625,0.850830078125,-0.529296875,0.3662109076976776,6.072997570037842,-0.3051757514476776,60.0,1293355.0,1.0
483835.8444568,288794.84375,305773.84375,316473.09375,330293.625,324772.28125,271131.9375,264873.09375,272466.875,-0.05419921875,0.850830078125,-0.531494140625,0.4882812201976776,5.767821788787842,-0.1525878757238388,60.0,1293356.0,1.0
483835.8444984,291800.15625,304984.125,314873.34375,328955.75,323155.625,270871.3125,262872.1875,271843.4375,-0.05419921875,0.85205078125,-0.53125,0.5187987685203552,5.462646007537842,0.03051757626235485,60.0,1293357.0,1.0
483835.8469016,291859.34375,303231.8125,310634.46875,326180.28125,320293.28125,270616.53125,260079.8125,271023.78125,-0.053955078125,0.8515625,-0.531494140625,0.6408690810203552,5.279540538787842,0.1220703050494194,60.0,1293358.0,1.0
483835.8494718,289162.375,302956.625,309536.4375,325766.15625,320061.53125,270734.4375,260258.8125,271132.3125,-0.051025390625,0.8525390625,-0.53076171875,0.6103515028953552,5.096435070037842,0.3356933295726776,60.0,1293359.0,1.0
483835.8518025,287275.8125,304544.15625,313173.0625,328346.15625,322844.9375,271065.34375,263247.59375,272030.9375,-0.051025390625,0.8525390625,-0.53125,0.7629393935203552,4.974364757537842,0.2746581733226776,60.0,1293360.0,1.0
483835.8518425,288829.0625,305786.0,316473.4375,330317.125,324778.65625,271162.53125,264890.90625,272475.90625,-0.05029296875,0.852294921875,-0.5302734375,0.7629393935203552,4.791259288787842,0.5493163466453552,60.0,1293361.0,1.0
483835.8544686,291840.03125,305015.40625,314912.3125,329004.8125,323190.15625,270899.5,262921.875,271869.5625,-0.0498046875,0.851318359375,-0.526123046875,0.7324218153953552,4.425048351287842,0.7934569716453552,60.0,1293362.0,1.0
483835.8545083,291918.625,303263.65625,310669.6875,326224.0,320323.125,270632.53125,260124.609375,271048.8125,-0.05029296875,0.852783203125,-0.529052734375,0.7324218153953552,4.394530773162842,0.9155272841453552,60.0,1293363.0,1.0
483835.8567629,289215.21875,302969.0625,309527.6875,325769.1875,320054.46875,270724.625,260264.0,271132.125,-0.049072265625,0.849365234375,-0.531494140625,0.6713866591453552,4.211425304412842,1.1291502714157104,60.0,1293364.0,1.0
483835.8722551,287311.46875,304557.5625,313144.8125,328339.1875,322826.8125,271056.125,263242.3125,272029.6875,-0.04638671875,0.85009765625,-0.531005859375,0.5798339247703552,4.089354991912842,1.2512205839157104,60.0,1293365.0,1.0
483835.872295,288841.5,305815.5,316467.1875,330333.59375,324781.78125,271161.625,264909.125,272485.5625,-0.044677734375,0.849365234375,-0.53125,0.6103515028953552,4.028319835662842,1.2512205839157104,60.0,1293366.0,1.0
483835.8744454,291812.3125,305010.9375,314886.90625,329011.0625,323168.34375,270881.78125,262917.25,271850.0625,-0.04541015625,0.8515625,-0.5283203125,0.6103515028953552,3.997802495956421,1.3427733182907104,60.0,1293367.0,1.0
483835.8744844,291942.3125,303282.34375,310670.3125,326251.34375,320329.5625,270628.9375,260139.984375,271048.34375,-0.047119140625,0.854248046875,-0.530029296875,0.5493163466453552,3.814697027206421,1.4038084745407104,60.0,1293368.0,1.0
483835.8767918,289266.53125,302988.0,309520.28125,325789.3125,320064.75,270740.78125,260275.609375,271143.03125,-0.046630859375,0.85791015625,-0.532958984375,0.4882812201976776,3.631591558456421,1.4648436307907104,60.0,1293369.0,1.0
483835.8806645,287351.1875,304563.90625,313126.5,328351.0,322832.15625,271074.1875,263245.96875,272038.28125,-0.048095703125,0.85693359375,-0.53466796875,0.5187987685203552,3.448486089706421,1.6174315214157104,60.0,1293370.0,1.0
483835.8993498,288837.9375,305799.0625,316448.25,330342.09375,324776.0625,271170.3125,264905.5625,272478.59375,-0.04638671875,0.855712890625,-0.533935546875,0.5187987685203552,3.356933355331421,1.6784666776657104,60.0,1293371.0,1.0
483835.8993913,291826.8125,305024.96875,314924.84375,329057.75,323200.96875,270906.375,262950.6875,271867.40625,-0.044677734375,0.854736328125,-0.532470703125,0.4577636420726776,3.234863042831421,1.6174315214157104,60.0,1293372.0,1.0
483835.9019549,291969.3125,303296.75,310708.65625,326291.6875,320351.84375,270648.875,260157.515625,271058.375,-0.0439453125,0.85498046875,-0.533203125,0.3356933295726776,3.112792730331421,1.5563963651657104,60.0,1293373.0,1.0
483835.9019958,289298.90625,302992.125,309528.03125,325804.0625,320058.03125,270751.25,260266.40625,271140.8125,-0.04345703125,0.85546875,-0.52783203125,0.3051757514476776,2.960204839706421,1.5258787870407104,60.0,1293374.0,1.0
483835.9042845,287387.65625,304583.9375,313133.5625,328366.625,322834.5625,271099.03125,263247.9375,272057.59375,-0.04296875,0.85693359375,-0.53076171875,0.2441406100988388,2.899169683456421,1.5563963651657104,60.0,1293375.0,1.0
483835.9068042,288841.40625,305826.15625,316459.9375,330355.75,324786.59375,271185.0625,264918.625,272491.375,-0.043701171875,0.860107421875,-0.531494140625,0.1525878757238388,2.899169683456421,1.5869139432907104,60.0,1293376.0,1.0
483835.9106733,291841.1875,305063.5,314967.21875,329088.15625,323233.40625,270924.0625,262988.3125,271879.3125,-0.04296875,0.860595703125,-0.53173828125,0.0915527269244194,2.746581792831421,1.7700194120407104,60.0,1293377.0,1.0
483835.9107153,292021.4375,303336.0625,310771.59375,326337.1875,320397.78125,270674.1875,260210.34375,271082.78125,-0.0419921875,0.859375,-0.529541015625,0.0915527269244194,2.624511480331421,1.7395018339157104,60.0,1293378.0,1.0
483835.9244359,289343.625,302996.34375,309545.84375,325808.25,320068.0625,270745.71875,260277.578125,271142.9375,-0.04052734375,0.859130859375,-0.529296875,-0.03051757626235485,2.502441167831421,1.7395018339157104,60.0,1293379.0,1.0
483835.9295434,287390.6875,304560.9375,313105.40625,328328.625,322809.0,271060.25,263220.25,272027.71875,-0.037841796875,0.8544921875,-0.5302734375,-0.1831054538488388,2.532958745956421,1.8005369901657104,60.0,1293380.0,1.0
483835.9295837,288834.8125,305825.6875,316463.4375,330342.53125,324791.78125,271154.21875,264917.71875,272479.3125,-0.03466796875,0.8515625,-0.530517578125,-0.2441406100988388,2.563476324081421,1.5869139432907104,60.0,1293381.0,1.0
483835.9295936,291861.3125,305098.71875,315020.3125,329111.9375,323277.78125,270900.5625,263017.90625,271887.96875,-0.032958984375,0.851806640625,-0.53369140625,-0.2441406100988388,2.624511480331421,1.5563963651657104,60.0,1293382.0,1.0
483835.9323119,292064.0,303372.71875,310817.46875,326354.0,320433.1875,270661.65625,260221.796875,271083.40625,-0.0302734375,0.853515625,-0.53369140625,-0.1831054538488388,2.716064214706421,1.6174315214157104,60.0,1293383.0,1.0
483835.9579914,289391.8125,303021.4375,309558.4375,325810.9375,320079.3125,270766.90625,260272.046875,271144.375,-0.031982421875,0.855224609375,-0.531494140625,-0.2441406100988388,2.777099370956421,1.4343260526657104,60.0,1293384.0,1.0
483835.9619407,287413.5,304568.8125,313095.125,328319.96875,322810.15625,271075.1875,263212.28125,272025.46875,-0.03271484375,0.85546875,-0.531982421875,-0.3662109076976776,2.746581792831421,1.4038084745407104,60.0,1293385.0,1.0
483835.9619784,288856.0,305854.84375,316498.125,330366.3125,324835.59375,271169.15625,264950.34375,272495.40625,-0.03271484375,0.852783203125,-0.53173828125,-0.3662109076976776,2.960204839706421,1.3122557401657104,60.0,1293386.0,1.0
483835.9619887,291865.59375,305116.34375,315063.40625,329134.0,323316.375,270904.3125,263043.65625,271890.3125,-0.032470703125,0.851806640625,-0.52978515625,-0.3051757514476776,2.960204839706421,1.1291502714157104,60.0,1293387.0,1.0
483835.9670762,292069.375,303370.59375,310840.375,326351.125,320442.75,270642.1875,260219.46875,271068.1875,-0.031005859375,0.85009765625,-0.528564453125,-0.3662109076976776,3.112792730331421,0.9765624403953552,60.0,1293388.0,1.0
483835.9671169,289405.125,303009.03125,309552.375,325787.25,320067.53125,270731.59375,260242.171875,271121.65625,-0.02880859375,0.85009765625,-0.52978515625,-0.3662109076976776,3.173827886581421,0.8544921278953552,60.0,1293389.0,1.0
483835.9671255,287421.8125,304562.125,313078.5,328296.28125,322794.4375,271070.625,263179.09375,272010.09375,-0.031494140625,0.849365234375,-0.5302734375,-0.3356933295726776,3.356933355331421,0.6408690810203552,60.0,1293390.0,1.0
483835.9671344,288838.90625,305859.59375,316492.03125,330355.59375,324829.15625,271174.40625,264935.875,272493.53125,-0.0302734375,0.848388671875,-0.530517578125,-0.3051757514476776,3.479003667831421,0.4882812201976776,60.0,1293391.0,1.0
483835.9694391,291870.34375,305151.46875,315105.34375,329161.1875,323353.125,270919.96875,263072.0,271913.09375,-0.03125,0.850341796875,-0.531005859375,-0.2441406100988388,3.662109136581421,0.3967284858226776,60.0,1293392.0,1.0
483835.9718181,292081.6875,303387.75,310869.5,326369.375,320461.28125,270646.125,260229.125,271071.59375,-0.030029296875,0.851318359375,-0.531005859375,-0.2136230319738388,3.875732183456421,0.1831054538488388,60.0,1293393.0,1.0
483835.9756662,289430.6875,303019.5625,309560.78125,325791.09375,320070.5625,270736.9375,260239.234375,271120.3125,-0.028076171875,0.85107421875,-0.528076171875,-0.2136230319738388,3.936767339706421,0.1831054538488388,60.0,1293394.0,1.0
483836.0094245,287430.125,304565.875,313066.5,328289.75,322783.34375,271075.8125,263169.8125,272006.34375,-0.030029296875,0.850830078125,-0.529541015625,-0.2136230319738388,4.058837413787842,-0.0610351525247097,60.0,1293395.0,1.0
483836.0094656,288817.71875,305865.5625,316496.78125,330359.15625,324830.84375,271184.59375,264940.78125,272487.1875,-0.030029296875,0.85302734375,-0.529052734375,-0.1220703050494194,4.272460460662842,-0.2136230319738388,60.0,1293396.0,1.0
483836.0119662,291836.09375,305149.875,315125.71875,329169.34375,323357.53125,270917.5625,263080.125,271895.9375,-0.0302734375,0.853759765625,-0.52880859375,-0.1831054538488388,4.486083507537842,-0.2746581733226776,60.0,1293397.0,1.0
483836.0120085,292087.6875,303399.5625,310906.96875,326391.28125,320481.375,270652.09375,260247.546875,271070.71875,-0.031005859375,0.853759765625,-0.525634765625,-0.1525878757238388,4.577636241912842,-0.3967284858226776,60.0,1293398.0,1.0
483836.0143249,289437.5,303011.78125,309553.34375,325775.625,320063.6875,270738.375,260225.375,271109.15625,-0.031494140625,0.8564453125,-0.52880859375,-0.1525878757238388,4.791259288787842,-0.4882812201976776,60.0,1293399.0,1.0
483836.0167935,287424.03125,304558.625,313042.375,328254.0625,322775.84375,271069.71875,263154.0625,272005.90625,-0.032958984375,0.856201171875,-0.529052734375,-0.2136230319738388,4.791259288787842,-0.5187987685203552,60.0,1293400.0,1.0
483836.0194327,288786.78125,305861.375,316493.375,330335.03125,324840.5,271177.53125,264943.8125,272488.78125,-0.0322265625,0.858642578125,-0.528564453125,-0.3662109076976776,4.913329601287842,-0.7019042372703552,60.0,1293401.0,1.0
483836.0219124,291804.1875,305150.5,315149.15625,329171.125,323386.125,270919.53125,263100.53125,271905.9375,-0.03271484375,0.85888671875,-0.5263671875,-0.5493163466453552,4.882812023162842,-0.8239745497703552,60.0,1293402.0,1.0
483836.0243077,292061.40625,303377.75,310915.09375,326384.03125,320493.71875,270643.25,260251.203125,271068.90625,-0.0361328125,0.857421875,-0.525634765625,-0.6408690810203552,5.004882335662842,-0.9155272841453552,60.0,1293403.0,1.0
483836.0259532,289424.96875,302974.6875,309534.65625,325753.34375,320054.09375,270728.71875,260210.34375,271103.96875,-0.038330078125,0.859130859375,-0.52783203125,-0.6713866591453552,5.035399913787842,-1.0375975370407104,60.0,1293404.0,1.0
483836.0331255,287383.8125,304498.375,312990.40625,328209.46875,322737.84375,271064.4375,263117.78125,271977.03125,-0.038818359375,0.858154296875,-0.529052734375,-0.7629393935203552,5.035399913787842,-1.0070799589157104,60.0,1293405.0,1.0
483836.0357155,288722.3125,305814.78125,316457.625,330306.84375,324817.34375,271183.53125,264928.28125,272473.15625,-0.041259765625,0.8583984375,-0.526611328125,-0.9155272841453552,4.913329601287842,-1.1291502714157104,60.0,1293406.0,1.0
483836.0357568,291745.53125,305118.59375,315143.59375,329161.90625,323383.71875,270918.53125,263105.53125,271898.34375,-0.042236328125,0.859375,-0.526611328125,-1.0375975370407104,4.974364757537842,-1.2512205839157104,60.0,1293407.0,1.0
483836.0382057,292025.46875,303343.40625,310899.71875,326372.15625,320473.96875,270632.875,260236.984375,271053.4375,-0.044189453125,0.85888671875,-0.524658203125,-1.1596678495407104,5.065917491912842,-1.2207030057907104,60.0,1293408.0,1.0
483836.0404903,289408.25,302946.4375,309499.6875,325729.125,320019.40625,270715.84375,260177.09375,271089.3125,-0.044189453125,0.85791015625,-0.52587890625,-1.1901854276657104,4.943847179412842,-1.3122557401657104,60.0,1293409.0,1.0
483836.0457326,287357.09375,304470.75,312938.5625,328168.40625,322696.4375,271042.53125,263070.46875,271961.5625,-0.044677734375,0.857177734375,-0.52783203125,-1.3122557401657104,4.882812023162842,-1.4038084745407104,60.0,1293410.0,1.0
483836.0457716,288684.9375,305804.5,316433.5625,330284.78125,324805.46875,271165.65625,264909.59375,272467.40625,-0.04638671875,0.856201171875,-0.531494140625,-1.3122557401657104,4.791259288787842,-1.5563963651657104,60.0,1293411.0,1.0
483836.0480016,291723.90625,305129.40625,315168.65625,329184.15625,323415.8125,270918.96875,263132.0,271914.09375,-0.04345703125,0.8544921875,-0.529541015625,-1.3427733182907104,4.760741710662842,-1.5869139432907104,60.0,1293412.0,1.0
483836.0719261,292021.8125,303348.40625,310925.75,326391.71875,320509.1875,270633.6875,260263.546875,271067.125,-0.044677734375,0.85400390625,-0.528564453125,-1.4038084745407104,4.669188976287842,-1.4953612089157104,60.0,1293413.0,1.0
483836.0743544,289384.5625,302908.96875,309457.59375,325699.71875,319999.65625,270711.1875,260153.75,271075.1875,-0.045166015625,0.854736328125,-0.527099609375,-1.2207030057907104,4.577636241912842,-1.5258787870407104,60.0,1293414.0,1.0
483836.07439,287312.5625,304430.25,312874.625,328127.1875,322666.65625,271031.09375,263039.625,271953.0625,-0.04638671875,0.8564453125,-0.52978515625,-1.2512205839157104,4.516601085662842,-1.4038084745407104,60.0,1293415.0,1.0
483836.0768846,288606.90625,305763.46875,316378.9375,330248.65625,324780.15625,271139.71875,264885.875,272460.96875,-0.046630859375,0.858642578125,-0.52880859375,-1.1596678495407104,4.455565929412842,-1.4038084745407104,60.0,1293416.0,1.0
483836.0794267,291635.21875,305085.21875,315121.4375,329154.5625,323385.5,270883.5,263104.09375,271897.28125,-0.046875,0.8583984375,-0.5283203125,-1.0681151151657104,4.302978038787842,-1.4343260526657104,60.0,1293417.0,1.0
483836.0819743,291964.84375,303311.21875,310876.3125,326371.5,320470.84375,270607.03125,260227.15625,271049.875,-0.046875,0.858154296875,-0.526123046875,-1.1291502714157104,4.180907726287842,-1.3732908964157104,60.0,1293418.0,1.0
483836.084277,289375.8125,302901.375,309421.375,325693.625,319985.53125,270699.40625,260134.171875,271083.5,-0.048828125,0.858642578125,-0.523193359375,-1.2817381620407104,4.089354991912842,-1.2817381620407104,60.0,1293419.0,1.0
483836.0868,287300.84375,304430.875,312833.34375,328116.375,322657.28125,271034.0625,263024.875,271966.125,-0.05078125,0.856689453125,-0.524658203125,-1.2817381620407104,3.967284917831421,-1.1901854276657104,60.0,1293420.0,1.0
483836.0893094,288551.90625,305747.75,316340.21875,330238.625,324765.9375,271134.375,264870.25,272456.4375,-0.05126953125,0.854736328125,-0.521240234375,-1.1901854276657104,3.784179449081421,-1.0986326932907104,60.0,1293421.0,1.0
483836.0918793,291575.125,305073.875,315116.25,329168.15625,323389.78125,270874.8125,263108.125,271894.3125,-0.051513671875,0.852294921875,-0.52197265625,-1.2512205839157104,3.601073980331421,-0.9765624403953552,60.0,1293422.0,1.0
483836.0919185,291933.71875,303302.375,310884.71875,326390.46875,320485.40625,270597.5625,260238.328125,271054.34375,-0.051025390625,0.852294921875,-0.52001953125,-1.1596678495407104,3.509521245956421,-0.8544921278953552,60.0,1293423.0,1.0
483836.1208699,289330.28125,302846.84375,309365.40625,325659.9375,319944.3125,270670.0625,260092.328125,271050.84375,-0.0498046875,0.8525390625,-0.52294921875,-1.1291502714157104,3.326415777206421,-0.8239745497703552,60.0,1293424.0,1.0
483836.1406906,287230.46875,304356.9375,312735.78125,328055.0625,322583.15625,271003.5625,262959.15625,271917.9375,-0.050537109375,0.8515625,-0.521240234375,-1.1596678495407104,3.173827886581421,-0.7629393935203552,60.0,1293425.0,1.0
483836.1407325,288489.6875,305715.71875,316292.03125,330217.1875,324739.9375,271135.625,264858.875,272442.5625,-0.047119140625,0.856689453125,-0.5234375,-1.0375975370407104,3.051757574081421,-0.6713866591453552,60.0,1293426.0,1.0
483836.1431684,291530.40625,305062.78125,315107.125,329172.5625,323392.5625,270881.4375,263125.28125,271894.78125,-0.044921875,0.85791015625,-0.521484375,-0.8850097060203552,2.929687261581421,-0.5493163466453552,60.0,1293427.0,1.0
483836.1480006,291916.21875,303292.4375,310874.59375,326394.3125,320481.75,270596.21875,260244.953125,271051.46875,-0.04541015625,0.85986328125,-0.52294921875,-0.8850097060203552,2.960204839706421,-0.3662109076976776,60.0,1293428.0,1.0
483836.1506296,289337.1875,302840.03125,309339.5,325656.4375,319933.125,270673.1875,260090.546875,271053.4375,-0.0439453125,0.86181640625,-0.523681640625,-0.9765624403953552,2.838134527206421,-0.2441406100988388,60.0,1293429.0,1.0
483836.155687,287235.03125,304353.71875,312699.9375,328047.53125,322573.34375,271009.0,262959.0625,271923.46875,-0.04345703125,0.860595703125,-0.524169921875,-1.0986326932907104,2.838134527206421,-0.1525878757238388,60.0,1293430.0,1.0
483836.158042,288466.0,305719.3125,316269.15625,330218.78125,324744.40625,271135.0625,264869.34375,272446.6875,-0.042724609375,0.858642578125,-0.5224609375,-1.0986326932907104,2.868652105331421,-0.1831054538488388,60.0,1293431.0,1.0
483836.1607006,291507.1875,305076.84375,315113.9375,329195.625,323416.625,270877.3125,263145.40625,271895.46875,-0.04248046875,0.856201171875,-0.52490234375,-1.2817381620407104,2.868652105331421,-0.0610351525247097,60.0,1293432.0,1.0
483836.1631367,291922.125,303309.25,310892.5625,326423.90625,320512.5,270600.78125,260265.515625,271054.78125,-0.042724609375,0.852294921875,-0.52490234375,-1.2512205839157104,2.838134527206421,-0.0610351525247097,60.0,1293433.0,1.0
483836.1655453,289350.6875,302842.71875,309326.96875,325660.28125,319943.875,270682.6875,260088.84375,271054.4375,-0.04345703125,0.8505859375,-0.527587890625,-1.2817381620407104,2.838134527206421,0.1525878757238388,60.0,1293434.0,1.0
483836.1680448,287225.65625,304346.1875,312660.6875,328032.6875,322563.125,271021.0,262943.78125,271921.15625,-0.0419921875,0.84765625,-0.527099609375,-1.1596678495407104,2.868652105331421,0.1220703050494194,60.0,1293435.0,1.0
483836.1705755,288417.1875,305700.53125,316232.40625,330203.5,324725.8125,271126.59375,264856.65625,272432.71875,-0.040283203125,0.849853515625,-0.5263671875,-1.0375975370407104,2.868652105331421,0.2136230319738388,60.0,1293436.0,1.0
483836.1730118,291471.15625,305073.53125,315111.96875,329203.9375,323421.34375,270876.875,263162.75,271894.21875,-0.039794921875,0.850341796875,-0.528564453125,-0.9155272841453552,2.838134527206421,0.1831054538488388,60.0,1293437.0,1.0
483836.1755459,291902.4375,303294.21875,310880.59375,326422.5625,320503.65625,270596.84375,260273.296875,271045.59375,-0.03955078125,0.85205078125,-0.529052734375,-0.7934569716453552,2.899169683456421,0.2746581733226776,60.0,1293438.0,1.0
483836.1781137,289327.15625,302800.71875,309269.75,325630.40625,319897.65625,270660.3125,260062.65625,271027.15625,-0.041015625,0.8515625,-0.529296875,-0.7934569716453552,2.868652105331421,0.2746581733226776,60.0,1293439.0,1.0
483836.1781558,287187.21875,304301.21875,312579.40625,327988.09375,322505.5625,270995.0625,262909.1875,271891.90625,-0.041259765625,0.8544921875,-0.529052734375,-0.6408690810203552,2.899169683456421,0.2746581733226776,60.0,1293440.0,1.0
483836.1806909,288384.09375,305694.375,316192.875,330197.34375,324714.4375,271131.6875,264866.03125,272436.9375,-0.04052734375,0.8525390625,-0.52685546875,-0.6713866591453552,3.021239995956421,0.2136230319738388,60.0,1293441.0,1.0
483836.182972,291434.65625,305071.71875,315095.78125,329211.34375,323424.03125,270870.6875,263177.0625,271895.65625,-0.04052734375,0.85205078125,-0.528564453125,-0.5798339247703552,3.021239995956421,0.2441406100988388,60.0,1293442.0,1.0
483836.1856046,291902.4375,303302.625,310875.59375,326440.625,320514.03125,270601.3125,260284.375,271054.53125,-0.040771484375,0.853515625,-0.52685546875,-0.6713866591453552,3.021239995956421,0.1525878757238388,60.0,1293443.0,1.0
483836.1856448,289360.34375,302819.5625,309255.71875,325647.5,319911.5,270682.21875,260068.015625,271050.3125,-0.042724609375,0.85302734375,-0.52685546875,-0.6713866591453552,3.051757574081421,0.0610351525247097,60.0,1293444.0,1.0
483836.1880364,287196.15625,304302.375,312535.59375,327986.46875,322503.84375,271004.0,262893.09375,271899.6875,-0.041748046875,0.85498046875,-0.524658203125,-0.6408690810203552,3.021239995956421,0.0610351525247097,60.0,1293445.0,1.0
483836.1906868,288357.09375,305693.28125,316159.375,330200.1875,324720.53125,271128.09375,264856.03125,272434.15625,-0.043212890625,0.855712890625,-0.52734375,-0.6103515028953552,3.021239995956421,0.0,60.0,1293446.0,1.0
483836.1931821,291404.0,305072.53125,315083.34375,329231.28125,323439.5,270872.5,263182.0625,271896.03125,-0.046875,0.8564453125,-0.527587890625,-0.5798339247703552,2.838134527206421,-0.1220703050494194,60.0,1293447.0,1.0
483836.1932228,291896.71875,303301.21875,310868.34375,326462.4375,320530.65625,270596.75,260290.28125,271055.3125,-0.04931640625,0.85546875,-0.525634765625,-0.6408690810203552,2.685546636581421,-0.3356933295726776,60.0,1293448.0,1.0
483836.1956974,289339.15625,302782.5625,309191.4375,325622.09375,319878.59375,270663.1875,260027.953125,271023.3125,-0.050537109375,0.856689453125,-0.52490234375,-0.6408690810203552,2.593993902206421,-0.5187987685203552,60.0,1293449.0,1.0
483836.2220334,287172.53125,304271.8125,312460.3125,327958.3125,322469.0,271007.125,262858.9375,271886.90625,-0.050537109375,0.85595703125,-0.52490234375,-0.7629393935203552,2.563476324081421,-0.6713866591453552,60.0,1293450.0,1.0
483836.2220742,288302.28125,305662.28125,316094.71875,330178.71875,324692.625,271125.96875,264838.0625,272425.65625,-0.051513671875,0.85986328125,-0.523681640625,-0.7324218153953552,2.410888433456421,-0.7934569716453552,60.0,1293451.0,1.0
483836.2269326,291358.21875,305066.90625,315063.15625,329234.40625,323442.375,270874.53125,263198.34375,271905.125,-0.053955078125,0.8603515625,-0.525634765625,-0.7324218153953552,2.319335699081421,-0.9155272841453552,60.0,1293452.0,1.0
483836.2294145,291886.34375,303312.21875,310861.09375,326460.5625,320539.0625,270595.6875,260305.65625,271064.625,-0.051513671875,0.859375,-0.528076171875,-0.7324218153953552,2.136230230331421,-1.0375975370407104,60.0,1293453.0,1.0
483836.2317967,289342.4375,302783.0,309148.4375,325589.28125,319854.0,270634.75,260008.828125,271020.09375,-0.05126953125,0.860107421875,-0.52880859375,-0.7629393935203552,2.014159917831421,-1.2207030057907104,60.0,1293454.0,1.0
483836.2334883,287171.03125,304277.09375,312407.75,327911.09375,322441.90625,270971.46875,262834.4375,271885.8125,-0.051513671875,0.860595703125,-0.527099609375,-0.7324218153953552,1.8615721464157104,-1.2207030057907104,60.0,1293455.0,1.0
483836.2406195,288308.625,305708.65625,316100.25,330164.78125,324716.15625,271118.96875,264855.65625,272450.6875,-0.048583984375,0.8583984375,-0.52490234375,-0.7324218153953552,1.6784666776657104,-1.2207030057907104,60.0,1293456.0,1.0
483836.2431825,291375.03125,305127.96875,315111.25,329245.0625,323491.28125,270879.8125,263229.09375,271927.9375,-0.04443359375,0.85791015625,-0.522705078125,-0.8544921278953552,1.7089842557907104,-1.3122557401657104,60.0,1293457.0,1.0
483836.2457,291905.9375,303342.6875,310888.09375,326464.3125,320553.96875,270598.8125,260306.8125,271059.71875,-0.043701171875,0.857421875,-0.524658203125,-0.9460448622703552,1.6174315214157104,-1.2207030057907104,60.0,1293458.0,1.0
483836.248111,289395.03125,302818.84375,309176.75,325610.3125,319875.21875,270665.59375,260020.625,271030.75,-0.043701171875,0.8544921875,-0.5244140625,-0.9765624403953552,1.5563963651657104,-1.0986326932907104,60.0,1293459.0,1.0
483836.2481523,287196.78125,304287.53125,312404.625,327915.65625,322435.0,270975.9375,262825.9375,271880.1875,-0.043701171875,0.85400390625,-0.527587890625,-1.0375975370407104,1.5563963651657104,-1.0070799589157104,60.0,1293460.0,1.0
483836.2505612,288289.15625,305704.8125,316086.125,330164.15625,324697.0,271100.3125,264847.25,272431.03125,-0.044677734375,0.8525390625,-0.52734375,-0.9765624403953552,1.5563963651657104,-1.0375975370407104,60.0,1293461.0,1.0
483836.2530764,291368.0625,305151.46875,315139.40625,329274.46875,323505.40625,270855.3125,263253.84375,271924.53125,-0.043212890625,0.85107421875,-0.52587890625,-1.0070799589157104,1.4953612089157104,-1.0070799589157104,60.0,1293462.0,1.0
483836.2531166,291936.6875,303385.59375,310933.0,326498.21875,320581.0625,270567.78125,260335.609375,271067.03125,-0.0458984375,0.8505859375,-0.52978515625,-1.0681151151657104,1.4953612089157104,-0.9460448622703552,60.0,1293463.0,1.0
483836.2719358,289420.875,302840.9375,309178.46875,325600.90625,319868.5,270625.625,260012.578125,271017.96875,-0.043701171875,0.853515625,-0.529052734375,-1.0070799589157104,1.5563963651657104,-1.0070799589157104,60.0,1293464.0,1.0
483836.2719779,287208.40625,304307.9375,312384.40625,327891.53125,322424.375,270958.9375,262813.6875,271868.75,-0.0439453125,0.852294921875,-0.526123046875,-1.0375975370407104,1.5258787870407104,-0.9155272841453552,60.0,1293465.0,1.0
483836.2769735,288275.28125,305728.25,316077.90625,330154.15625,324700.0625,271092.78125,264846.28125,272420.125,-0.043212890625,0.85107421875,-0.52490234375,-1.0375975370407104,1.3732908964157104,-0.7019042372703552,60.0,1293466.0,1.0
483836.2770161,291358.125,305183.40625,315161.125,329285.375,323527.125,270856.3125,263268.5,271915.40625,-0.04345703125,0.849853515625,-0.52294921875,-1.0986326932907104,1.2512205839157104,-0.6408690810203552,60.0,1293467.0,1.0
483836.2794644,291960.46875,303421.90625,310966.34375,326517.53125,320606.28125,270576.09375,260351.25,271066.0625,-0.044677734375,0.853271484375,-0.52685546875,-0.9155272841453552,1.1291502714157104,-0.6103515028953552,60.0,1293468.0,1.0
483836.2842697,289456.09375,302863.125,309174.4375,325599.125,319867.0625,270637.25,260002.03125,271010.53125,-0.04638671875,0.855224609375,-0.527587890625,-0.9155272841453552,1.1596678495407104,-0.4577636420726776,60.0,1293469.0,1.0
483836.2868799,287204.65625,304295.40625,312327.1875,327852.09375,322380.9375,270947.21875,262766.84375,271839.59375,-0.04541015625,0.855224609375,-0.52734375,-0.8850097060203552,1.1291502714157104,-0.3967284858226776,60.0,1293470.0,1.0
483836.2893977,288308.0,305774.5625,316106.25,330176.9375,324737.25,271110.84375,264873.71875,272443.0,-0.047607421875,0.856689453125,-0.5283203125,-0.9765624403953552,1.0375975370407104,-0.3051757514476776,60.0,1293471.0,1.0
483836.2919673,291409.1875,305246.4375,315252.9375,329341.15625,323611.96875,270878.21875,263333.34375,271955.5625,-0.0478515625,0.856201171875,-0.5283203125,-1.0070799589157104,1.0070799589157104,-0.4272460639476776,60.0,1293472.0,1.0
483836.2967938,291997.9375,303438.0,311031.78125,326539.6875,320656.4375,270569.125,260378.4375,271069.8125,-0.04931640625,0.855712890625,-0.5234375,-1.2207030057907104,0.8850097060203552,-0.3662109076976776,60.0,1293473.0,1.0
483836.2993816,289493.375,302849.15625,309204.21875,325589.125,319887.28125,270621.34375,259998.984375,270994.25,-0.049560546875,0.853271484375,-0.527587890625,-1.1901854276657104,0.8544921278953552,-0.3051757514476776,60.0,1293474.0,1.0
483836.3219324,287242.90625,304289.15625,312354.28125,327849.21875,322406.40625,270956.71875,262770.78125,271833.25,-0.0498046875,0.85107421875,-0.528076171875,-1.1901854276657104,0.8544921278953552,-0.3356933295726776,60.0,1293475.0,1.0
483836.3219756,288297.46875,305753.1875,316118.59375,330162.1875,324744.21875,271109.34375,264868.0,272425.21875,-0.04931640625,0.85205078125,-0.525390625,-1.1596678495407104,0.6103515028953552,-0.2746581733226776,60.0,1293476.0,1.0
483836.3244822,291395.15625,305233.90625,315280.3125,329332.75,323618.0625,270874.09375,263335.84375,271933.46875,-0.0478515625,0.8525390625,-0.526123046875,-1.0986326932907104,0.5798339247703552,-0.3356933295726776,60.0,1293477.0,1.0
483836.3245232,292038.15625,303451.59375,311087.125,326557.40625,320682.1875,270589.15625,260397.921875,271069.09375,-0.049072265625,0.853271484375,-0.5283203125,-1.0375975370407104,0.4577636420726776,-0.2136230319738388,60.0,1293478.0,1.0
483836.3269398,289565.4375,302865.0,309248.5625,325608.0625,319907.65625,270642.90625,260008.828125,271007.6875,-0.05078125,0.855224609375,-0.5263671875,-0.9765624403953552,0.3356933295726776,-0.2441406100988388,60.0,1293479.0,1.0
483836.3269854,287308.34375,304288.53125,312370.375,327851.46875,322408.375,270965.90625,262763.0,271836.65625,-0.047607421875,0.856689453125,-0.525146484375,-0.9460448622703552,0.2746581733226776,-0.1831054538488388,60.0,1293480.0,1.0
483836.3292715,288351.03125,305757.65625,316150.5,330182.5,324759.59375,271132.03125,264877.21875,272447.9375,-0.049072265625,0.85791015625,-0.524169921875,-0.8239745497703552,0.3356933295726776,-0.1525878757238388,60.0,1293481.0,1.0
483836.331789,291467.125,305256.0,315351.46875,329386.125,323657.65625,270909.15625,263365.78125,271972.5625,-0.048583984375,0.859130859375,-0.5224609375,-0.9155272841453552,0.2746581733226776,-0.1220703050494194,60.0,1293482.0,1.0
483836.335671,292135.34375,303479.125,311162.3125,326612.90625,320717.25,270621.625,260417.421875,271103.53125,-0.04833984375,0.861328125,-0.529052734375,-1.0986326932907104,0.2441406100988388,-0.2136230319738388,60.0,1293483.0,1.0
483836.3357139,289653.9375,302861.3125,309281.625,325628.625,319908.375,270666.5,259988.796875,271023.6875,-0.047119140625,0.8623046875,-0.5283203125,-1.2207030057907104,0.1831054538488388,-0.0610351525247097,60.0,1293484.0,1.0
483836.3467947,287381.84375,304282.625,312393.0,327868.46875,322409.34375,271013.5625,262744.78125,271869.75,-0.049072265625,0.86083984375,-0.5263671875,-1.4038084745407104,0.1220703050494194,-0.1831054538488388,60.0,1293485.0,1.0
483836.3494397,288403.59375,305767.9375,316193.875,330210.90625,324778.375,271183.8125,264881.6875,272476.53125,-0.047607421875,0.86376953125,-0.527587890625,-1.4648436307907104,0.1525878757238388,-0.0610351525247097,60.0,1293486.0,1.0
483836.3494811,291506.46875,305269.3125,315414.6875,329417.0625,323680.625,270934.34375,263376.0625,271991.3125,-0.04736328125,0.862060546875,-0.5263671875,-1.5258787870407104,0.1831054538488388,-0.1220703050494194,60.0,1293487.0,1.0
483836.3518745,292185.5,303483.875,311217.84375,326635.28125,320724.5625,270638.6875,260417.953125,271121.5625,-0.047607421875,0.8623046875,-0.52685546875,-1.7395018339157104,0.2746581733226776,-0.2136230319738388,60.0,1293488.0,1.0
483836.3719078,289731.625,302877.6875,309316.78125,325645.09375,319906.59375,270690.90625,259986.203125,271049.0625,-0.046142578125,0.8671875,-0.529052734375,-1.6784666776657104,0.3051757514476776,-0.1220703050494194,60.0,1293489.0,1.0
483836.3744158,287443.8125,304295.9375,312414.0,327871.84375,322410.78125,271017.40625,262740.84375,271885.1875,-0.046142578125,0.869140625,-0.52783203125,-1.7089842557907104,0.2441406100988388,0.0610351525247097,60.0,1293490.0,1.0
483836.374456,288410.84375,305756.5,316210.6875,330209.5,324782.03125,271177.625,264878.375,272477.875,-0.04541015625,0.86865234375,-0.527099609375,-1.9226073026657104,0.2441406100988388,0.2136230319738388,60.0,1293491.0,1.0
483836.3768797,291529.25,305281.46875,315477.28125,329449.0,323721.3125,270945.90625,263407.625,272012.25,-0.045166015625,0.8662109375,-0.52587890625,-2.105712652206421,0.4272460639476776,0.2441406100988388,60.0,1293492.0,1.0
483836.3794092,292262.40625,303518.1875,311315.03125,326687.65625,320789.9375,270648.34375,260467.125,271151.09375,-0.045166015625,0.864990234375,-0.522705078125,-2.197265386581421,0.4272460639476776,0.2746581733226776,60.0,1293493.0,1.0
483836.3818468,289843.5,302923.1875,309417.71875,325698.71875,319982.3125,270708.53125,260040.75,271086.625,-0.042724609375,0.860595703125,-0.523193359375,-2.319335699081421,0.5187987685203552,0.3662109076976776,60.0,1293494.0,1.0
483836.3842665,287521.0625,304320.1875,312467.21875,327889.75,322451.90625,271043.34375,262768.375,271907.71875,-0.043212890625,0.85546875,-0.52294921875,-2.319335699081421,0.6408690810203552,0.2746581733226776,60.0,1293495.0,1.0
483836.3869696,288452.5,305787.34375,316265.5,330219.875,324822.53125,271178.8125,264907.4375,272490.21875,-0.044677734375,0.854736328125,-0.525634765625,-2.349853277206421,0.7019042372703552,0.3051757514476776,60.0,1293496.0,1.0
483836.3870103,291560.8125,305322.59375,315555.40625,329466.4375,323770.84375,270936.3125,263441.6875,272014.65625,-0.044189453125,0.85205078125,-0.53076171875,-2.105712652206421,0.8239745497703552,0.3967284858226776,60.0,1293497.0,1.0
483836.3994239,292312.65625,303563.625,311394.78125,326691.15625,320834.375,270633.40625,260485.8125,271139.625,-0.046142578125,0.85302734375,-0.53125,-1.9531248807907104,0.9155272841453552,0.4577636420726776,60.0,1293498.0,1.0
483836.4018769,289878.28125,302933.125,309443.46875,325653.3125,319978.125,270677.75,260012.578125,271048.25,-0.044921875,0.854736328125,-0.53173828125,-1.8005369901657104,0.9460448622703552,0.4577636420726776,60.0,1293499.0,1.0
483836.4019166,287554.125,304334.40625,312481.0625,327849.5,322446.09375,271015.90625,262746.46875,271886.46875,-0.047607421875,0.854736328125,-0.527587890625,-1.5563963651657104,0.9765624403953552,0.5493163466453552,60.0,1293500.0,1.0
483836.4042767,288462.34375,305812.1875,316290.4375,330204.84375,324830.6875,271190.5,264907.0,272483.15625,-0.048583984375,0.85205078125,-0.520751953125,-1.4953612089157104,1.0986326932907104,0.7324218153953552,60.0,1293501.0,1.0
483836.4217899,291558.75,305348.71875,315590.375,329464.71875,323775.84375,270952.59375,263439.90625,272000.90625,-0.04833984375,0.8515625,-0.516357421875,-1.5869139432907104,1.1596678495407104,0.9155272841453552,60.0,1293502.0,1.0
483836.4243408,292336.78125,303589.8125,311441.90625,326708.21875,320843.3125,270658.09375,260483.671875,271134.71875,-0.044677734375,0.848876953125,-0.519775390625,-1.4953612089157104,1.3122557401657104,0.9460448622703552,60.0,1293503.0,1.0
483836.4243843,289908.3125,302937.78125,309466.09375,325662.96875,319978.90625,270692.0625,259992.640625,271038.0625,-0.041748046875,0.84912109375,-0.5205078125,-1.4038084745407104,1.4038084745407104,1.0070799589157104,60.0,1293504.0,1.0
483836.4269498,287574.59375,304330.0,312483.03125,327856.84375,322447.4375,271030.125,262725.90625,271878.40625,-0.0419921875,0.848876953125,-0.5244140625,-1.2207030057907104,1.5563963651657104,1.0681151151657104,60.0,1293505.0,1.0
483836.42941,288455.28125,305805.75,316301.0625,330219.78125,324848.1875,271188.90625,264905.375,272479.9375,-0.039794921875,0.8486328125,-0.524169921875,-0.9765624403953552,1.7395018339157104,1.2512205839157104,60.0,1293506.0,1.0
483836.4317951,291541.6875,305345.3125,315624.4375,329495.3125,323814.84375,270953.03125,263460.21875,272002.78125,-0.0390625,0.847412109375,-0.524658203125,-0.7019042372703552,1.8920897245407104,1.2817381620407104,60.0,1293507.0,1.0
483836.4356701,292348.6875,303598.21875,311485.6875,326751.0625,320888.46875,270674.09375,260511.921875,271150.0,-0.03759765625,0.84765625,-0.523193359375,-0.6103515028953552,2.166747808456421,1.3427733182907104,60.0,1293508.0,1.0
483836.4456911,289922.625,302932.125,309467.4375,325675.46875,319991.625,270707.96875,259993.984375,271048.1875,-0.03662109375,0.852294921875,-0.5263671875,-0.3051757514476776,2.380370855331421,1.4038084745407104,60.0,1293509.0,1.0
483836.4457314,287549.03125,304299.0625,312441.1875,327833.9375,322431.875,271027.0625,262699.53125,271871.53125,-0.034912109375,0.855712890625,-0.527099609375,-0.2441406100988388,2.624511480331421,1.5258787870407104,60.0,1293510.0,1.0
483836.4481958,288407.0,305788.78125,316276.84375,330214.3125,324843.1875,271195.78125,264894.65625,272481.90625,-0.037353515625,0.859375,-0.523681640625,-0.1220703050494194,2.838134527206421,1.4953612089157104,60.0,1293511.0,1.0
483836.4482379,291532.46875,305383.0625,315677.53125,329540.1875,323869.28125,270979.15625,263500.71875,272036.65625,-0.03955078125,0.859130859375,-0.521240234375,-0.2441406100988388,3.082275152206421,1.4953612089157104,60.0,1293512.0,1.0
483836.4808724,292340.34375,303613.9375,311521.375,326764.09375,320911.4375,270671.875,260515.234375,271150.46875,-0.0419921875,0.85791015625,-0.52392578125,-0.2136230319738388,3.295898199081421,1.4038084745407104,60.0,1293513.0,1.0
483836.502862,289944.25,302955.5625,309489.875,325679.78125,320004.21875,270710.84375,259982.359375,271046.9375,-0.04638671875,0.8583984375,-0.521728515625,-0.2136230319738388,3.387450933456421,1.1291502714157104,60.0,1293514.0,1.0
483836.5029052,287535.625,304290.59375,312405.96875,327802.28125,322395.84375,271025.1875,262648.75,271848.8125,-0.04443359375,0.85986328125,-0.52197265625,-0.1220703050494194,3.479003667831421,1.0070799589157104,60.0,1293515.0,1.0
483836.5081219,288384.8125,305804.78125,316266.90625,330205.1875,324843.09375,271201.40625,264876.78125,272481.09375,-0.04541015625,0.85888671875,-0.5224609375,-0.0915527269244194,3.509521245956421,0.8850097060203552,60.0,1293516.0,1.0
483836.5106571,291485.1875,305393.59375,315671.8125,329524.09375,323871.34375,270961.28125,263484.6875,272023.78125,-0.045654296875,0.85791015625,-0.520751953125,-0.1525878757238388,3.601073980331421,0.7019042372703552,60.0,1293517.0,1.0
483836.5131707,292318.53125,303639.34375,311526.8125,326756.78125,320923.6875,270650.84375,260503.96875,271144.8125,-0.044677734375,0.858154296875,-0.5205078125,-0.0915527269244194,3.601073980331421,0.4272460639476776,60.0,1293518.0,1.0
483836.5155523,289902.125,302943.21875,309427.8125,325630.96875,319956.75,270678.03125,259918.171875,271015.71875,-0.043701171875,0.858154296875,-0.5244140625,0.0915527269244194,3.509521245956421,0.3662109076976776,60.0,1293519.0,1.0
483836.5206846,287520.96875,304318.21875,312358.75,327767.59375,322371.96875,271004.09375,262605.5625,271841.75,-0.04150390625,0.859619140625,-0.52685546875,0.0915527269244194,3.753661870956421,0.1220703050494194,60.0,1293520.0,1.0
483836.5256684,288338.15625,305834.375,316228.125,330168.8125,324823.6875,271170.75,264843.59375,272465.8125,-0.043212890625,0.863037109375,-0.524169921875,0.0915527269244194,3.814697027206421,-0.03051757626235485,60.0,1293521.0,1.0
483836.5280991,291444.84375,305431.0625,315672.8125,329525.34375,323880.625,270946.78125,263484.53125,272029.0625,-0.041748046875,0.864501953125,-0.525146484375,0.0,3.906249761581421,-0.1220703050494194,60.0,1293522.0,1.0
483836.5305142,292314.875,303668.9375,311547.5625,326779.03125,320948.09375,270646.375,260515.578125,271156.53125,-0.040771484375,0.86572265625,-0.522216796875,-0.0610351525247097,3.997802495956421,-0.1220703050494194,60.0,1293523.0,1.0
483836.5332159,289918.21875,302947.25,309434.0,325638.46875,319970.875,270674.71875,259916.375,271020.46875,-0.04150390625,0.864501953125,-0.521728515625,-0.1831054538488388,4.150390148162842,-0.2136230319738388,60.0,1293524.0,1.0
483836.5356617,287522.03125,304294.15625,312328.90625,327757.9375,322356.6875,271019.75,262585.09375,271841.5625,-0.041015625,0.863525390625,-0.523681640625,-0.2441406100988388,4.241942882537842,-0.2136230319738388,60.0,1293525.0,1.0
483836.5379852,288298.09375,305785.8125,316189.65625,330154.25,324794.03125,271177.53125,264815.96875,272448.03125,-0.0419921875,0.86328125,-0.5224609375,-0.3051757514476776,4.302978038787842,-0.2746581733226776,60.0,1293526.0,1.0
483836.5405197,291404.4375,305393.40625,315669.5,329536.53125,323875.4375,270959.46875,263482.5625,272020.75,-0.0419921875,0.85986328125,-0.5205078125,-0.4882812201976776,4.516601085662842,-0.2136230319738388,60.0,1293527.0,1.0
483836.5430839,292297.09375,303636.40625,311550.25,326794.9375,320943.0,270661.75,260517.734375,271157.4375,-0.044189453125,0.8583984375,-0.524169921875,-0.4882812201976776,4.699706554412842,-0.1525878757238388,60.0,1293528.0,1.0
483836.5470095,289895.34375,302887.875,309386.78125,325617.90625,319922.3125,270670.34375,259875.78125,271001.15625,-0.0439453125,0.8583984375,-0.52490234375,-0.4577636420726776,4.852294445037842,-0.2136230319738388,60.0,1293529.0,1.0
483836.5470498,287493.6875,304236.65625,312270.25,327727.5625,322304.03125,271002.65625,262538.78125,271822.875,-0.0439453125,0.85791015625,-0.5244140625,-0.3662109076976776,4.882812023162842,-0.2746581733226776,60.0,1293530.0,1.0
483836.5470596,288277.625,305773.125,316182.96875,330164.15625,324794.09375,271185.0625,264824.5625,272471.875,-0.0439453125,0.856689453125,-0.5244140625,-0.2441406100988388,4.882812023162842,-0.2746581733226776,60.0,1293531.0,1.0
483836.548332,291359.46875,305377.0625,315672.71875,329547.25,323878.75,270953.3125,263497.9375,272030.84375,-0.044677734375,0.85693359375,-0.523193359375,-0.2746581733226776,4.821776866912842,-0.1220703050494194,60.0,1293532.0,1.0
483836.5581527,292260.0625,303613.40625,311543.625,326797.375,320931.1875,270654.78125,260518.625,271156.4375,-0.0458984375,0.85546875,-0.52294921875,-0.1831054538488388,4.913329601287842,-0.03051757626235485,60.0,1293533.0,1.0
483836.5629945,289900.53125,302883.3125,309378.5625,325616.75,319914.46875,270682.9375,259879.90625,271016.0,-0.0478515625,0.8583984375,-0.517333984375,-0.2136230319738388,4.913329601287842,0.1831054538488388,60.0,1293534.0,1.0
483836.5655768,287486.8125,304220.03125,312233.3125,327696.78125,322274.875,271008.3125,262523.3125,271821.8125,-0.047607421875,0.856201171875,-0.52001953125,-0.1525878757238388,5.035399913787842,0.2441406100988388,60.0,1293535.0,1.0
483836.5656156,288222.28125,305735.40625,316131.1875,330115.78125,324747.78125,271166.375,264792.28125,272441.21875,-0.048095703125,0.8583984375,-0.522216796875,-0.2746581733226776,4.943847179412842,0.3356933295726776,60.0,1293536.0,1.0
483836.568137,291314.15625,305360.4375,315660.125,329533.75,323865.25,270939.625,263492.375,272020.28125,-0.04736328125,0.857177734375,-0.52197265625,-0.2136230319738388,4.913329601287842,0.3967284858226776,60.0,1293537.0,1.0
483836.5706556,292247.90625,303604.46875,311549.28125,326797.09375,320934.78125,270642.8125,260520.59375,271154.03125,-0.051025390625,0.857421875,-0.520263671875,-0.2441406100988388,4.791259288787842,0.4882812201976776,60.0,1293538.0,1.0
483836.5723151,289892.21875,302851.75,309340.65625,325588.59375,319882.96875,270660.59375,259844.9375,270998.71875,-0.051513671875,0.8564453125,-0.52197265625,-0.1220703050494194,4.791259288787842,0.6713866591453552,60.0,1293539.0,1.0
483836.5980155,287470.8125,304182.5,312171.625,327654.3125,322229.125,270990.15625,262473.15625,271808.9375,-0.04931640625,0.85546875,-0.521484375,-0.2136230319738388,4.791259288787842,0.7934569716453552,60.0,1293540.0,1.0
483836.6006362,288201.0,305724.40625,316101.5,330105.96875,324734.28125,271169.21875,264777.625,272455.15625,-0.05029296875,0.8544921875,-0.52001953125,-0.0610351525247097,4.730224132537842,0.8239745497703552,60.0,1293541.0,1.0
483836.6056541,291288.75,305362.65625,315663.25,329551.09375,323872.6875,270953.03125,263506.0625,272035.59375,-0.048583984375,0.8544921875,-0.517578125,0.0,4.516601085662842,0.7934569716453552,60.0,1293542.0,1.0
483836.6106582,292234.6875,303599.375,311549.625,326814.53125,320933.34375,270655.3125,260526.765625,271159.75,-0.048583984375,0.856201171875,-0.519775390625,-0.0610351525247097,4.394530773162842,0.8544921278953552,60.0,1293543.0,1.0
483836.6106979,289886.3125,302832.0,309314.0,325582.40625,319859.65625,270670.53125,259826.875,270991.59375,-0.049072265625,0.857177734375,-0.51953125,-0.0915527269244194,4.394530773162842,0.8850097060203552,60.0,1293544.0,1.0
483836.6129752,287463.5625,304165.40625,312136.21875,327640.90625,322204.78125,270998.09375,262456.78125,271808.65625,-0.047119140625,0.859375,-0.5224609375,0.0,4.364013195037842,1.0375975370407104,60.0,1293545.0,1.0
483836.6181725,288172.03125,305710.0,316085.6875,330101.84375,324727.84375,271165.46875,264781.375,272459.375,-0.05078125,0.856201171875,-0.5224609375,0.0,4.241942882537842,1.1291502714157104,60.0,1293546.0,1.0
483836.6205242,291243.59375,305343.96875,315663.25,329552.78125,323878.65625,270940.09375,263518.21875,272029.3125,-0.0498046875,0.857666015625,-0.523681640625,-0.1220703050494194,4.058837413787842,1.0986326932907104,60.0,1293547.0,1.0
483836.6231788,292190.875,303561.75,311528.875,326796.1875,320915.46875,270619.75,260512.71875,271133.90625,-0.049072265625,0.857177734375,-0.522705078125,0.0,3.997802495956421,1.0375975370407104,60.0,1293548.0,1.0
483836.6256639,289875.59375,302799.53125,309282.0,325558.625,319839.96875,270642.8125,259805.15625,270973.59375,-0.04931640625,0.855712890625,-0.522705078125,0.0,3.936767339706421,1.1596678495407104,60.0,1293549.0,1.0
483836.6280157,287418.3125,304098.09375,312050.5625,327574.65625,322144.625,270957.0625,262393.40625,271759.21875,-0.047607421875,0.855224609375,-0.52392578125,-0.03051757626235485,3.845214605331421,1.0986326932907104,60.0,1293550.0,1.0
483836.6306527,288094.5,305645.8125,316005.9375,330042.125,324674.46875,271140.53125,264730.125,272414.3125,-0.049072265625,0.854736328125,-0.522705078125,-0.1525878757238388,3.753661870956421,1.1291502714157104,60.0,1293551.0,1.0
483836.6332443,291182.0,305315.53125,315643.21875,329539.46875,323874.46875,270932.75,263516.8125,272026.5625,-0.046875,0.85302734375,-0.52392578125,-0.0915527269244194,3.662109136581421,1.1291502714157104,60.0,1293552.0,1.0
483836.6332834,292161.46875,303541.53125,311534.0625,326797.8125,320928.5,270619.65625,260523.8125,271141.78125,-0.048095703125,0.8525390625,-0.524169921875,-0.1220703050494194,3.479003667831421,1.0986326932907104,60.0,1293553.0,1.0
483836.635527,289852.25,302759.03125,309250.78125,325534.65625,319820.125,270639.6875,259788.703125,270967.15625,-0.04833984375,0.8515625,-0.52490234375,-0.03051757626235485,3.387450933456421,1.0070799589157104,60.0,1293554.0,1.0
483836.6381441,287393.375,304060.4375,311999.0,327540.4375,322112.625,270952.0625,262369.78125,271751.71875,-0.048095703125,0.8525390625,-0.526611328125,0.1525878757238388,3.387450933456421,0.9155272841453552,60.0,1293555.0,1.0
483836.6405203,288064.28125,305636.15625,315987.4375,330030.21875,324674.03125,271130.34375,264738.625,272420.75,-0.0478515625,0.85400390625,-0.525634765625,0.1220703050494194,3.234863042831421,0.9765624403953552,60.0,1293556.0,1.0
483836.6432182,291142.125,305309.03125,315643.5625,329534.75,323877.78125,270919.96875,263533.15625,272026.90625,-0.048583984375,0.854248046875,-0.525634765625,0.1525878757238388,3.173827886581421,0.8544921278953552,60.0,1293557.0,1.0
483836.6455511,292139.1875,303537.96875,311529.59375,326790.65625,320920.375,270607.5,260528.640625,271135.0,-0.04736328125,0.8525390625,-0.52490234375,0.1831054538488388,3.112792730331421,0.8544921278953552,60.0,1293558.0,1.0
483836.6455853,289847.59375,302750.46875,309221.46875,325509.09375,319791.0625,270616.59375,259769.84375,270953.9375,-0.044677734375,0.8544921875,-0.5244140625,0.2746581733226776,2.990722417831421,0.8239745497703552,60.0,1293559.0,1.0
483836.6643966,287395.78125,304060.625,311963.40625,327514.9375,322084.71875,270940.0,262353.96875,271749.40625,-0.046142578125,0.856201171875,-0.52490234375,0.1525878757238388,2.960204839706421,0.6408690810203552,60.0,1293560.0,1.0
483836.6644123,288038.8125,305633.65625,315958.03125,330012.09375,324651.40625,271127.9375,264730.125,272417.875,-0.046630859375,0.857177734375,-0.525146484375,0.03051757626235485,2.899169683456421,0.7019042372703552,60.0,1293561.0,1.0
483836.6644152,291111.90625,305315.375,315645.8125,329544.46875,323883.40625,270916.375,263547.03125,272027.1875,-0.04833984375,0.856201171875,-0.52392578125,0.0,2.899169683456421,0.6713866591453552,60.0,1293562.0,1.0
483836.6693547,292145.90625,303556.28125,311555.53125,326823.8125,320942.71875,270611.6875,260556.796875,271149.125,-0.046875,0.85791015625,-0.524169921875,-0.03051757626235485,2.716064214706421,0.6103515028953552,60.0,1293563.0,1.0
483836.669372,289901.34375,302788.09375,309253.84375,325563.0,319825.21875,270657.90625,259808.46875,270996.9375,-0.0478515625,0.856689453125,-0.52587890625,-0.0915527269244194,2.624511480331421,0.5493163466453552,60.0,1293564.0,1.0
483836.6719116,287433.78125,304082.0,311965.90625,327548.1875,322098.40625,270980.65625,262370.59375,271782.03125,-0.046875,0.857421875,-0.5283203125,-0.0610351525247097,2.563476324081421,0.6103515028953552,60.0,1293565.0,1.0
483836.6768432,288021.46875,305630.71875,315936.8125,330027.09375,324640.59375,271146.25,264727.625,272426.46875,-0.046142578125,0.85888671875,-0.5263671875,0.03051757626235485,2.471923589706421,0.5187987685203552,60.0,1293566.0,1.0
483836.6818602,291100.625,305335.03125,315665.5625,329582.3125,323905.75,270928.90625,263576.34375,272044.15625,-0.045654296875,0.8583984375,-0.525634765625,-0.0610351525247097,2.532958745956421,0.5798339247703552,60.0,1293567.0,1.0
483836.6841697,292151.09375,303568.09375,311583.59375,326850.1875,320969.625,270608.375,260579.875,271152.25,-0.047607421875,0.858154296875,-0.5263671875,-0.1220703050494194,2.563476324081421,0.5798339247703552,60.0,1293568.0,1.0
483836.686888,289864.84375,302727.40625,309206.53125,325511.34375,319783.65625,270600.875,259761.078125,270937.3125,-0.044189453125,0.859375,-0.524169921875,-0.1831054538488388,2.563476324081421,0.3662109076976776,60.0,1293569.0,1.0
483836.689377,287387.375,304016.65625,311894.03125,327474.4375,322042.96875,270930.0625,262315.71875,271723.46875,-0.04541015625,0.859130859375,-0.523681640625,-0.2136230319738388,2.441406011581421,0.4577636420726776,60.0,1293570.0,1.0
483836.6968783,287975.6875,305595.9375,315899.71875,329981.3125,324620.75,271118.4375,264712.78125,272396.25,-0.045166015625,0.85888671875,-0.525634765625,-0.3356933295726776,2.502441167831421,0.3662109076976776,60.0,1293571.0,1.0
483836.6994031,291052.0,305312.25,315656.625,329557.09375,323900.9375,270912.46875,263579.75,272024.84375,-0.0439453125,0.8603515625,-0.5244140625,-0.4272460639476776,2.532958745956421,0.3967284858226776,60.0,1293572.0,1.0
483836.7019219,292135.78125,303562.90625,311592.1875,326843.9375,320971.875,270606.25,260595.328125,271149.125,-0.045166015625,0.859375,-0.522216796875,-0.5493163466453552,2.563476324081421,0.4272460639476776,60.0,1293573.0,1.0
483836.7043292,289886.75,302738.46875,309210.5625,325510.78125,319785.09375,270613.3125,259774.9375,270953.125,-0.044189453125,0.8583984375,-0.525634765625,-0.6408690810203552,2.502441167831421,0.3662109076976776,60.0,1293574.0,1.0
483836.7043644,287391.6875,304008.25,311862.09375,327457.8125,322020.625,270931.6875,262303.0,271726.9375,-0.044677734375,0.858154296875,-0.524658203125,-0.7019042372703552,2.502441167831421,0.3662109076976776,60.0,1293575.0,1.0
483836.7092698,287960.84375,305595.125,315883.0,329978.71875,324614.84375,271121.65625,264716.28125,272404.5625,-0.042236328125,0.859375,-0.523681640625,-0.6713866591453552,2.593993902206421,0.3051757514476776,60.0,1293576.0,1.0
483836.7143851,291026.625,305314.21875,315665.46875,329574.6875,323910.78125,270920.21875,263597.625,272037.375,-0.04150390625,0.857666015625,-0.52490234375,-0.5798339247703552,2.593993902206421,0.2441406100988388,60.0,1293577.0,1.0
483836.7169851,292125.34375,303557.34375,311601.3125,326864.25,320974.8125,270611.78125,260605.34375,271158.21875,-0.040771484375,0.8583984375,-0.5224609375,-0.6713866591453552,2.593993902206421,0.2746581733226776,60.0,1293578.0,1.0
483836.7170261,289897.40625,302729.0,309202.96875,325518.40625,319776.6875,270620.28125,259770.90625,270956.71875,-0.042724609375,0.85888671875,-0.5205078125,-0.8239745497703552,2.624511480331421,0.3051757514476776,60.0,1293579.0,1.0
483836.7194217,287399.09375,303995.0,311840.65625,327453.78125,322004.96875,270940.4375,262298.09375,271731.15625,-0.04296875,0.85986328125,-0.51953125,-0.8850097060203552,2.593993902206421,0.2746581733226776,60.0,1293580.0,1.0
483836.7242675,287958.53125,305598.59375,315885.40625,329990.25,324622.71875,271131.6875,264737.5625,272419.40625,-0.0419921875,0.858642578125,-0.52099609375,-1.0375975370407104,2.685546636581421,0.2441406100988388,60.0,1293581.0,1.0
483836.7306716,291007.46875,305316.875,315683.28125,329591.96875,323928.125,270926.59375,263628.1875,272045.34375,-0.043701171875,0.857421875,-0.5205078125,-1.0681151151657104,2.716064214706421,0.2136230319738388,60.0,1293582.0,1.0
483836.7719422,292123.09375,303558.25,311623.75,326883.46875,320992.625,270605.6875,260631.1875,271156.28125,-0.044189453125,0.857177734375,-0.521240234375,-1.1596678495407104,2.838134527206421,0.1525878757238388,60.0,1293583.0,1.0
483836.7719836,289914.3125,302721.40625,309201.1875,325523.9375,319777.84375,270616.4375,259775.203125,270954.75,-0.043701171875,0.85791015625,-0.52392578125,-1.0986326932907104,2.655029058456421,0.0915527269244194,60.0,1293584.0,1.0
483836.7742694,287405.71875,303979.09375,311809.0,327442.96875,321989.0625,270939.28125,262282.0,271726.5,-0.041748046875,0.85595703125,-0.522216796875,-1.0986326932907104,2.716064214706421,-0.0610351525247097,60.0,1293585.0,1.0
483836.7793736,287922.3125,305571.53125,315846.96875,329971.3125,324602.59375,271129.8125,264718.875,272408.59375,-0.041748046875,0.857421875,-0.521728515625,-1.2207030057907104,2.746581792831421,-0.0915527269244194,60.0,1293586.0,1.0
483836.7794126,290993.09375,305328.78125,315708.9375,329617.53125,323956.09375,270943.3125,263655.125,272059.90625,-0.040771484375,0.856201171875,-0.5224609375,-1.1596678495407104,2.899169683456421,-0.03051757626235485,60.0,1293587.0,1.0
483836.7794212,292139.90625,303573.8125,311664.6875,326917.34375,321025.25,270628.0625,260652.46875,271174.25,-0.04296875,0.85693359375,-0.526123046875,-1.2207030057907104,2.929687261581421,-0.0915527269244194,60.0,1293588.0,1.0
483836.779429,289924.03125,302702.0,309190.90625,325511.6875,319764.34375,270605.78125,259747.75,270942.40625,-0.040283203125,0.857666015625,-0.52490234375,-1.3732908964157104,2.899169683456421,-0.0915527269244194,60.0,1293589.0,1.0
483836.7794382,287406.4375,303955.3125,311772.53125,327406.125,321963.3125,270931.21875,262246.59375,271714.4375,-0.040283203125,0.856689453125,-0.5244140625,-1.3427733182907104,2.990722417831421,-0.1220703050494194,60.0,1293590.0,1.0
483836.7832066,287917.5625,305574.65625,315838.9375,329957.375,324604.03125,271139.625,264714.9375,272414.03125,-0.041748046875,0.857421875,-0.521728515625,-1.2512205839157104,2.960204839706421,-0.1525878757238388,60.0,1293591.0,1.0
483836.7832492,290985.125,305340.21875,315725.1875,329625.3125,323971.84375,270940.15625,263662.8125,272066.4375,-0.042724609375,0.856689453125,-0.524658203125,-1.2207030057907104,2.929687261581421,-0.1220703050494194,60.0,1293592.0,1.0
483836.7832593,292143.21875,303583.5625,311678.8125,326922.53125,321035.53125,270610.53125,260654.25,271175.9375,-0.04248046875,0.8564453125,-0.5234375,-1.2207030057907104,2.929687261581421,-0.1220703050494194,60.0,1293593.0,1.0
483836.7880652,289943.34375,302709.59375,309182.21875,325507.9375,319761.9375,270605.6875,259740.15625,270942.75,-0.041015625,0.856689453125,-0.523193359375,-1.1596678495407104,3.051757574081421,-0.1831054538488388,60.0,1293594.0,1.0
483836.7881044,287421.46875,303959.5,311742.5625,327395.21875,321951.9375,270934.8125,262233.8125,271717.28125,-0.04296875,0.85498046875,-0.52099609375,-1.2512205839157104,3.021239995956421,-0.2136230319738388,60.0,1293595.0,1.0
483836.7931481,287893.96875,305567.3125,315806.28125,329943.5,324593.75,271127.5625,264703.125,272411.71875,-0.0439453125,0.854736328125,-0.52294921875,-1.2207030057907104,2.960204839706421,-0.2441406100988388,60.0,1293596.0,1.0
483836.7981754,290947.40625,305335.46875,315721.0,329630.59375,323980.59375,270934.8125,263673.25,272065.96875,-0.0439453125,0.85546875,-0.523681640625,-1.0986326932907104,3.051757574081421,-0.2441406100988388,60.0,1293597.0,1.0
483836.8005104,292131.15625,303581.84375,311688.375,326937.28125,321045.90625,270609.625,260666.765625,271173.15625,-0.0458984375,0.856201171875,-0.52294921875,-1.1596678495407104,3.082275152206421,-0.1525878757238388,60.0,1293598.0,1.0
483836.803227,289953.90625,302699.0625,309171.65625,325508.375,319752.8125,270605.78125,259733.09375,270943.3125,-0.044921875,0.85791015625,-0.521240234375,-1.1596678495407104,3.082275152206421,-0.3051757514476776,60.0,1293599.0,1.0
483836.8032678,287433.0,303950.3125,311711.8125,327387.4375,321933.96875,270943.46875,262217.1875,271709.6875,-0.0439453125,0.8583984375,-0.521240234375,-1.0375975370407104,3.112792730331421,-0.3051757514476776,60.0,1293600.0,1.0
483836.8055367,287895.65625,305576.25,315794.3125,329954.3125,324595.96875,271145.71875,264708.15625,272418.96875,-0.0439453125,0.858642578125,-0.520263671875,-1.0070799589157104,3.021239995956421,-0.1525878757238388,60.0,1293601.0,1.0
483836.8080108,290963.3125,305369.8125,315749.34375,329663.5625,324013.6875,270949.28125,263699.625,272091.46875,-0.044921875,0.859375,-0.52099609375,-0.9155272841453552,2.990722417831421,-0.1525878757238388,60.0,1293602.0,1.0
483836.8242794,292184.34375,303619.3125,311733.0,326981.71875,321086.5,270632.25,260689.125,271201.59375,-0.043212890625,0.861083984375,-0.520751953125,-0.9155272841453552,3.051757574081421,-0.0610351525247097,60.0,1293603.0,1.0
483836.8268634,290026.5,302718.28125,309186.96875,325536.46875,319769.0,270630.28125,259729.34375,270957.0625,-0.0439453125,0.8623046875,-0.52001953125,-1.1291502714157104,3.112792730331421,0.0,60.0,1293604.0,1.0
483836.8269022,287474.46875,303929.03125,311675.5,327377.4375,321905.0,270955.5625,262176.40625,271711.03125,-0.044921875,0.8623046875,-0.52392578125,-1.0986326932907104,3.082275152206421,-0.0915527269244194,60.0,1293605.0,1.0
483836.8283638,287943.6875,305584.46875,315791.90625,329975.34375,324599.65625,271174.875,264704.9375,272443.8125,-0.0439453125,0.865966796875,-0.520263671875,-1.0375975370407104,3.051757574081421,-0.03051757626235485,60.0,1293606.0,1.0
483836.8459009,291014.28125,305389.40625,315785.0,329712.375,324042.1875,270988.90625,263724.9375,272117.21875,-0.043212890625,0.86376953125,-0.519775390625,-0.9460448622703552,3.021239995956421,-0.03051757626235485,60.0,1293607.0,1.0
483836.8496196,292260.15625,303647.65625,311778.78125,327040.1875,321113.84375,270680.96875,260719.609375,271225.65625,-0.042724609375,0.86572265625,-0.522216796875,-1.1596678495407104,2.960204839706421,0.0,60.0,1293608.0,1.0
483836.8819118,290119.3125,302746.71875,309213.59375,325584.09375,319782.21875,270676.6875,259745.25,270983.09375,-0.045654296875,0.86181640625,-0.52392578125,-1.3122557401657104,2.990722417831421,0.0915527269244194,60.0,1293609.0,1.0
483836.8843966,287588.03125,303982.21875,311712.25,327434.375,321938.8125,271012.0625,262210.75,271760.84375,-0.044921875,0.85986328125,-0.52490234375,-1.3732908964157104,2.990722417831421,0.1220703050494194,60.0,1293610.0,1.0
483836.8867939,288013.15625,305621.21875,315828.65625,330020.3125,324633.25,271217.875,264741.84375,272478.15625,-0.045166015625,0.85888671875,-0.522705078125,-1.2207030057907104,2.868652105331421,0.2441406100988388,60.0,1293611.0,1.0
483836.8892755,291061.21875,305419.71875,315842.3125,329755.3125,324084.5625,271011.0625,263771.4375,272132.84375,-0.04443359375,0.859619140625,-0.5205078125,-1.0986326932907104,2.777099370956421,0.3356933295726776,60.0,1293612.0,1.0
483836.8917924,292325.96875,303671.625,311852.4375,327079.53125,321162.5,270697.59375,260771.46875,271243.0,-0.0439453125,0.859619140625,-0.521484375,-1.1291502714157104,2.716064214706421,0.3662109076976776,60.0,1293613.0,1.0
483836.8967967,290195.65625,302751.625,309263.5,325596.0,319810.21875,270681.25,259776.28125,270992.90625,-0.045166015625,0.858642578125,-0.52099609375,-1.1291502714157104,2.746581792831421,0.3662109076976776,60.0,1293614.0,1.0
483836.9018689,287635.125,303957.0,311718.53125,327404.0,321936.40625,270992.84375,262209.75,271745.90625,-0.046142578125,0.85302734375,-0.522216796875,-1.4343260526657104,3.021239995956421,0.2136230319738388,60.0,1293615.0,1.0
483836.904403,288029.34375,305589.5625,315831.15625,329987.59375,324629.96875,271203.03125,264743.90625,272465.0,-0.04736328125,0.853271484375,-0.523193359375,-1.2207030057907104,2.777099370956421,0.2746581733226776,60.0,1293616.0,1.0
483836.9068839,291093.65625,305418.09375,315890.4375,329764.15625,324112.75,271024.75,263806.84375,272148.875,-0.04541015625,0.8564453125,-0.52490234375,-0.7629393935203552,2.471923589706421,0.5187987685203552,60.0,1293617.0,1.0
483836.9092816,292377.90625,303669.84375,311903.6875,327093.84375,321179.65625,270711.65625,260793.28125,271254.4375,-0.0439453125,0.860595703125,-0.523681640625,-0.4272460639476776,2.288818120956421,0.6408690810203552,60.0,1293618.0,1.0
483836.911876,290273.96875,302749.5625,309304.4375,325601.90625,319820.84375,270694.9375,259788.796875,271007.125,-0.040771484375,0.86181640625,-0.51953125,-0.3967284858226776,2.136230230331421,0.8544921278953552,60.0,1293619.0,1.0
483836.9142651,287697.28125,303948.4375,311723.96875,327391.46875,321926.46875,271012.84375,262207.96875,271753.5,-0.04296875,0.860107421875,-0.51806640625,-0.5187987685203552,2.044677495956421,1.0070799589157104,60.0,1293620.0,1.0
483836.9168969,288061.96875,305601.90625,315849.84375,329986.78125,324636.5625,271231.0,264766.15625,272477.0,-0.04248046875,0.85595703125,-0.519287109375,-0.7934569716453552,2.075195074081421,1.0681151151657104,60.0,1293621.0,1.0
483836.9194096,291104.65625,305442.25,315942.0,329782.21875,324139.90625,271051.21875,263855.46875,272162.625,-0.044677734375,0.855712890625,-0.52294921875,-0.7934569716453552,2.075195074081421,1.0681151151657104,60.0,1293622.0,1.0
483836.9232308,292423.3125,303717.5625,311993.875,327131.75,321236.96875,270733.1875,260864.1875,271279.5625,-0.044921875,0.855712890625,-0.520751953125,-0.7629393935203552,2.014159917831421,1.0986326932907104,60.0,1293623.0,1.0
483836.9232711,290325.03125,302781.40625,309364.78125,325615.3125,319856.53125,270713.0,259829.125,271018.65625,-0.04296875,0.860107421875,-0.52099609375,-0.5798339247703552,1.8920897245407104,1.0375975370407104,60.0,1293624.0,1.0
483836.9232815,287726.59375,303956.8125,311744.96875,327383.59375,321934.78125,271034.3125,262225.40625,271758.34375,-0.041748046875,0.85888671875,-0.521240234375,-0.4272460639476776,1.8005369901657104,1.0070799589157104,60.0,1293625.0,1.0
483836.9255109,288046.125,305597.0,315855.03125,329975.59375,324634.78125,271238.6875,264777.34375,272474.65625,-0.04052734375,0.858642578125,-0.519287109375,-0.3356933295726776,1.7700194120407104,1.0375975370407104,60.0,1293626.0,1.0
483836.9306123,291068.71875,305440.28125,315953.0,329779.09375,324144.75,271041.90625,263868.0625,272155.375,-0.04248046875,0.858642578125,-0.521728515625,-0.1220703050494194,1.6784666776657104,1.0986326932907104,60.0,1293627.0,1.0
483836.9331352,292423.25,303736.625,312022.6875,327151.21875,321260.03125,270732.21875,260885.109375,271283.9375,-0.041259765625,0.85791015625,-0.5205078125,-0.03051757626235485,1.7700194120407104,1.2512205839157104,60.0,1293628.0,1.0
483836.9356829,290343.0,302795.53125,309364.25,325628.09375,319861.4375,270720.125,259829.390625,271021.09375,-0.040771484375,0.85791015625,-0.521728515625,-0.03051757626235485,1.7089842557907104,1.4343260526657104,60.0,1293629.0,1.0
483836.9357243,287702.90625,303931.25,311675.96875,327354.8125,321888.03125,271015.375,262175.59375,271730.4375,-0.041748046875,0.85693359375,-0.518798828125,-0.1831054538488388,1.7089842557907104,1.4343260526657104,60.0,1293630.0,1.0
483836.9405209,287992.9375,305572.0625,315785.375,329955.65625,324594.65625,271215.90625,264738.8125,272449.8125,-0.04248046875,0.85595703125,-0.52294921875,-0.1525878757238388,1.8310545682907104,1.5563963651657104,60.0,1293631.0,1.0
483836.9431682,291050.3125,305472.1875,315958.8125,329825.3125,324176.65625,271057.03125,263899.0,272175.6875,-0.0400390625,0.85595703125,-0.521240234375,-0.0915527269244194,1.8310545682907104,1.4343260526657104,60.0,1293632.0,1.0
483836.9456578,292388.1875,303739.5625,311999.0625,327168.84375,321262.53125,270724.34375,260887.703125,271276.0625,-0.037841796875,0.855224609375,-0.522705078125,0.03051757626235485,1.7700194120407104,1.5869139432907104,60.0,1293633.0,1.0
483836.9481651,290280.875,302756.90625,309271.71875,325595.03125,319810.375,270694.75,259784.328125,270985.9375,-0.0380859375,0.852294921875,-0.521728515625,0.2136230319738388,1.8310545682907104,1.5258787870407104,60.0,1293634.0,1.0
483836.950703,287641.5625,303910.96875,311565.90625,327325.5,321844.46875,270994.09375,262140.90625,271714.6875,-0.03564453125,0.8505859375,-0.522705078125,0.4577636420726776,1.8615721464157104,1.4648436307907104,60.0,1293635.0,1.0
483836.9507443,287911.9375,305582.15625,315693.46875,329944.21875,324584.09375,271206.0625,264738.0,272451.59375,-0.03564453125,0.84716796875,-0.5224609375,0.5187987685203552,1.9836424589157104,1.4343260526657104,60.0,1293636.0,1.0
483836.9530412,290907.875,305454.84375,315840.4375,329785.34375,324137.25,271022.4375,263876.65625,272147.53125,-0.03564453125,0.848388671875,-0.52294921875,0.7019042372703552,2.136230230331421,1.4648436307907104,60.0,1293637.0,1.0
483836.95559,292279.46875,303745.46875,311896.53125,327145.25,321238.5625,270700.65625,260878.9375,271266.6875,-0.0390625,0.8486328125,-0.525634765625,0.9155272841453552,2.197265386581421,1.4648436307907104,60.0,1293638.0,1.0
483836.9556319,290213.1875,302779.53125,309162.625,325567.375,319790.1875,270670.34375,259773.953125,270981.65625,-0.037109375,0.84765625,-0.52392578125,1.0070799589157104,2.227782964706421,1.4343260526657104,60.0,1293639.0,1.0
483836.9718972,287556.09375,303911.125,311412.21875,327262.53125,321786.625,270977.8125,262100.5,271685.09375,-0.03662109375,0.847412109375,-0.52490234375,1.1596678495407104,2.380370855331421,1.3122557401657104,60.0,1293640.0,1.0
483836.9743298,287815.65625,305592.09375,315552.8125,329896.21875,324535.90625,271194.71875,264714.03125,272438.09375,-0.03955078125,0.84814453125,-0.525634765625,1.3122557401657104,2.441406011581421,1.2207030057907104,60.0,1293641.0,1.0
483836.9743717,290817.84375,305484.4375,315744.25,329766.03125,324119.0,271008.46875,263879.96875,272148.5,-0.0390625,0.85009765625,-0.525634765625,1.3732908964157104,2.502441167831421,1.1596678495407104,60.0,1293642.0,1.0
483836.9794352,292214.90625,303777.65625,311814.4375,327130.84375,321219.71875,270682.40625,260876.078125,271265.0,-0.040283203125,0.851318359375,-0.524658203125,1.4953612089157104,2.655029058456421,1.0375975370407104,60.0,1293643.0,1.0
483836.9794758,290166.0625,302792.46875,309047.5625,325536.46875,319736.625,270653.71875,259738.546875,270967.875,-0.037109375,0.85009765625,-0.524169921875,1.4648436307907104,2.746581792831421,0.9155272841453552,60.0,1293644.0,1.0
483836.981912,287542.15625,303942.15625,311308.9375,327251.8125,321751.40625,270983.09375,262080.5625,271703.4375,-0.040771484375,0.852294921875,-0.527587890625,1.4343260526657104,2.746581792831421,0.8850097060203552,60.0,1293645.0,1.0
483836.9844226,287769.875,305608.875,315452.25,329885.375,324497.09375,271193.1875,264693.03125,272438.90625,-0.0390625,0.851806640625,-0.528564453125,1.5258787870407104,2.746581792831421,0.8544921278953552,60.0,1293646.0,1.0
483836.9969084,290773.0625,305511.25,315688.53125,329786.25,324111.5625,271013.03125,263889.53125,272159.40625,-0.038818359375,0.8544921875,-0.526123046875,1.6174315214157104,2.838134527206421,0.7324218153953552,60.0,1293647.0,1.0
483836.9969522,292173.34375,303778.625,311755.71875,327144.71875,321195.3125,270678.46875,260872.671875,271252.90625,-0.0390625,0.856689453125,-0.525146484375,1.6174315214157104,2.899169683456421,0.6713866591453552,60.0,1293648.0,1.0
483836.9994203,290161.25,302793.375,308987.59375,325545.9375,319701.84375,270656.03125,259726.484375,270959.75,-0.037109375,0.85791015625,-0.52685546875,1.5563963651657104,2.960204839706421,0.6408690810203552,60.0,1293649.0,1.0
483837.0018992,287561.5625,303955.84375,311259.3125,327253.4375,321720.75,270981.46875,262066.4375,271702.71875,-0.03564453125,0.859619140625,-0.527587890625,1.5563963651657104,2.990722417831421,0.5798339247703552,60.0,1293650.0,1.0
483837.0044061,287771.46875,305625.4375,315422.75,329884.59375,324472.15625,271186.75,264680.15625,272435.9375,-0.03759765625,0.86181640625,-0.529052734375,1.3427733182907104,3.021239995956421,0.5493163466453552,60.0,1293651.0,1.0
483837.0219103,290795.5,305558.28125,315720.8125,329823.34375,324127.125,271024.75,263912.96875,272175.5,-0.03759765625,0.86328125,-0.528076171875,1.3427733182907104,3.173827886581421,0.6408690810203552,60.0,1293652.0,1.0
483837.0269088,292231.0,303830.3125,311822.84375,327191.375,321232.40625,270688.84375,260908.171875,271274.65625,-0.03955078125,0.863037109375,-0.5263671875,1.2817381620407104,3.265380620956421,0.5493163466453552,60.0,1293653.0,1.0
483837.0269491,290215.25,302803.65625,309017.625,325547.53125,319706.125,270641.09375,259717.71875,270955.90625,-0.03955078125,0.862548828125,-0.530029296875,1.0681151151657104,3.326415777206421,0.3356933295726776,60.0,1293654.0,1.0
483837.0294045,287568.25,303910.4375,311216.5,327197.46875,321657.53125,270945.53125,261992.765625,271663.03125,-0.04052734375,0.8603515625,-0.52783203125,1.0070799589157104,3.295898199081421,0.3356933295726776,60.0,1293655.0,1.0
483837.0319106,287804.03125,305630.96875,315440.0,329875.09375,324468.3125,271186.03125,264662.375,272440.78125,-0.040771484375,0.859375,-0.5283203125,0.7934569716453552,3.204345464706421,0.3662109076976776,60.0,1293656.0,1.0
483837.0417926,290824.09375,305581.8125,315780.8125,329837.65625,324161.46875,271018.59375,263929.78125,272191.6875,-0.044189453125,0.85693359375,-0.5244140625,0.7324218153953552,3.173827886581421,0.4272460639476776,60.0,1293657.0,1.0
483837.0444023,292255.59375,303838.8125,311868.1875,327190.03125,321248.3125,270673.75,260910.234375,271276.53125,-0.0439453125,0.856201171875,-0.528564453125,0.7019042372703552,3.173827886581421,0.3356933295726776,60.0,1293658.0,1.0
483837.0469076,290239.90625,302789.71875,309024.25,325516.15625,319690.03125,270621.875,259690.71875,270942.84375,-0.04248046875,0.857421875,-0.529052734375,0.6103515028953552,3.173827886581421,0.3051757514476776,60.0,1293659.0,1.0
483837.0469465,287589.0,303888.34375,311205.6875,327153.65625,321634.09375,270930.5,261961.65625,271651.125,-0.04345703125,0.85888671875,-0.5283203125,0.6408690810203552,3.143310308456421,0.2746581733226776,60.0,1293660.0,1.0
483837.0493982,287786.875,305596.1875,315428.1875,329830.65625,324444.53125,271168.875,264637.78125,272426.75,-0.04443359375,0.8623046875,-0.52734375,0.5493163466453552,3.112792730331421,0.2746581733226776,60.0,1293661.0,1.0
483837.0518021,290793.0,305555.0625,315798.25,329816.46875,324154.9375,271013.46875,263924.84375,272182.21875,-0.041748046875,0.86376953125,-0.530029296875,0.4577636420726776,3.082275152206421,0.1831054538488388,60.0,1293662.0,1.0
483837.0542906,292257.21875,303826.75,311908.875,327198.625,321257.53125,270679.8125,260916.9375,271281.0,-0.042236328125,0.864501953125,-0.530517578125,0.1831054538488388,3.082275152206421,0.1525878757238388,60.0,1293663.0,1.0
483837.0580262,290279.25,302781.9375,309063.3125,325530.90625,319703.71875,270630.8125,259698.765625,270956.875,-0.039794921875,0.86474609375,-0.528564453125,-0.03051757626235485,3.143310308456421,0.2441406100988388,60.0,1293664.0,1.0
483837.0718569,287628.875,303878.40625,311226.6875,327159.90625,321642.25,270945.625,261960.3125,271663.125,-0.039794921875,0.865234375,-0.52490234375,-0.1525878757238388,3.021239995956421,0.1525878757238388,60.0,1293665.0,1.0
483837.071897,287778.46875,305570.34375,315432.9375,329825.84375,324436.40625,271177.375,264623.65625,272417.8125,-0.043212890625,0.8623046875,-0.525634765625,-0.3356933295726776,3.082275152206421,0.0915527269244194,60.0,1293666.0,1.0
483837.1057272,290737.8125,305505.0,315794.5,329796.25,324130.25,270982.5625,263897.59375,272147.0625,-0.045166015625,0.862548828125,-0.525146484375,-0.6103515028953552,3.082275152206421,-0.0915527269244194,60.0,1293667.0,1.0
483837.1057689,292258.46875,303815.9375,311956.6875,327219.1875,321281.125,270670.53125,260933.828125,271275.625,-0.048583984375,0.864501953125,-0.52490234375,-0.9155272841453552,3.143310308456421,-0.0915527269244194,60.0,1293668.0,1.0
483837.105779,290288.75,302753.59375,309078.0625,325527.59375,319701.03125,270616.0625,259688.75,270934.53125,-0.048583984375,0.863525390625,-0.526123046875,-1.0070799589157104,3.051757574081421,-0.1831054538488388,60.0,1293669.0,1.0
483837.1095499,287615.75,303823.96875,311194.9375,327118.5,321604.34375,270913.15625,261917.578125,271621.1875,-0.050048828125,0.864990234375,-0.527099609375,-1.1596678495407104,2.838134527206421,-0.0915527269244194,60.0,1293670.0,1.0
483837.1095913,287743.9375,305523.25,315413.96875,329793.21875,324411.53125,271150.90625,264598.0,272386.3125,-0.050048828125,0.864501953125,-0.52734375,-1.2817381620407104,2.777099370956421,-0.1525878757238388,60.0,1293671.0,1.0
483837.109602,290700.90625,305478.09375,315820.78125,329800.09375,324140.0,270981.21875,263914.84375,272136.625,-0.04833984375,0.864013671875,-0.526611328125,-1.4343260526657104,2.563476324081421,-0.1831054538488388,60.0,1293672.0,1.0
483837.1245726,292232.53125,303786.96875,311987.8125,327222.65625,321284.53125,270663.0,260946.890625,271259.875,-0.046142578125,0.865234375,-0.524169921875,-1.6174315214157104,2.441406011581421,-0.1525878757238388,60.0,1293673.0,1.0
483837.1246134,290292.59375,302730.34375,309100.15625,325519.8125,319699.0625,270610.25,259692.5,270927.125,-0.04443359375,0.8642578125,-0.526611328125,-1.8615721464157104,2.349853277206421,-0.0915527269244194,60.0,1293674.0,1.0
483837.1246223,287631.375,303811.375,311207.8125,327105.8125,321600.3125,270926.65625,261925.265625,271629.84375,-0.044677734375,0.862548828125,-0.5244140625,-1.8615721464157104,2.410888433456421,-0.1525878757238388,60.0,1293675.0,1.0
483837.1246318,287736.0625,305518.21875,315434.8125,329782.75,324412.875,271163.0625,264615.96875,272398.5625,-0.045166015625,0.86181640625,-0.525634765625,-1.9836424589157104,2.441406011581421,-0.2746581733226776,60.0,1293676.0,1.0
483837.1267622,290690.625,305491.21875,315871.65625,329809.84375,324161.46875,270985.0625,263948.46875,272150.21875,-0.0439453125,0.8583984375,-0.5234375,-2.014159917831421,2.471923589706421,-0.1831054538488388,60.0,1293677.0,1.0
483837.1318855,292238.53125,303796.96875,312046.46875,327234.90625,321308.65625,270654.6875,260974.875,271266.0625,-0.04296875,0.85791015625,-0.52197265625,-1.9531248807907104,2.471923589706421,-0.1525878757238388,60.0,1293678.0,1.0
483837.1344224,290319.03125,302730.78125,309132.5,325519.8125,319702.8125,270617.59375,259700.8125,270929.71875,-0.041015625,0.856201171875,-0.5234375,-2.014159917831421,2.502441167831421,-0.2136230319738388,60.0,1293679.0,1.0
483837.1369229,287621.0,303778.8125,311178.40625,327061.28125,321558.1875,270909.25,261888.78125,271604.8125,-0.041259765625,0.853759765625,-0.521240234375,-1.9531248807907104,2.532958745956421,-0.03051757626235485,60.0,1293680.0,1.0
483837.1392748,287693.53125,305489.875,315406.28125,329744.9375,324378.28125,271132.40625,264590.03125,272374.78125,-0.040771484375,0.8525390625,-0.5224609375,-1.9836424589157104,2.441406011581421,0.03051757626235485,60.0,1293681.0,1.0
483837.144436,290664.6875,305500.09375,315907.21875,329822.90625,324182.375,270977.1875,263975.375,272151.8125,-0.041015625,0.850830078125,-0.52099609375,-1.9836424589157104,2.502441167831421,-0.03051757626235485,60.0,1293682.0,1.0
483837.1468598,292242.625,303810.5625,312104.40625,327261.84375,321338.875,270651.03125,261005.359375,271276.78125,-0.041259765625,0.850341796875,-0.51953125,-1.9226073026657104,2.532958745956421,0.0610351525247097,60.0,1293683.0,1.0
483837.1492722,290322.71875,302714.25,309148.25,325518.46875,319693.8125,270595.6875,259693.21875,270924.0,-0.041748046875,0.851318359375,-0.51953125,-1.8310545682907104,2.532958745956421,0.0915527269244194,60.0,1293684.0,1.0
483837.1519131,287619.9375,303758.0625,311168.65625,327050.84375,321536.5625,270900.75,261876.359375,271604.8125,-0.040771484375,0.8505859375,-0.5185546875,-1.6479490995407104,2.532958745956421,0.2441406100988388,60.0,1293685.0,1.0
483837.1542708,287684.125,305490.0625,315413.4375,329751.53125,324379.25,271141.6875,264603.0,272387.65625,-0.040771484375,0.851806640625,-0.519287109375,-1.6479490995407104,2.502441167831421,0.1525878757238388,60.0,1293686.0,1.0
483837.1567631,290646.28125,305506.6875,315939.0625,329844.1875,324193.03125,270983.875,263998.625,272164.0625,-0.040771484375,0.852294921875,-0.517578125,-1.5258787870407104,2.563476324081421,0.3662109076976776,60.0,1293687.0,1.0
483837.1592444,292235.40625,303809.21875,312136.3125,327278.375,321335.03125,270652.1875,261013.140625,271273.21875,-0.041748046875,0.85400390625,-0.5166015625,-1.4953612089157104,2.593993902206421,0.3356933295726776,60.0,1293688.0,1.0
483837.1618172,290336.65625,302710.0625,309160.65625,325521.34375,319675.75,270599.0,259682.84375,270913.34375,-0.042724609375,0.853515625,-0.514404296875,-1.3732908964157104,2.532958745956421,0.3662109076976776,60.0,1293689.0,1.0
483837.1618529,287642.75,303758.34375,311168.40625,327040.625,321525.65625,270897.875,261861.34375,271599.0,-0.041259765625,0.850830078125,-0.5146484375,-1.3427733182907104,2.593993902206421,0.3356933295726776,60.0,1293690.0,1.0
483837.1641304,287667.0625,305478.4375,315407.0,329737.0625,324368.09375,271143.46875,264588.34375,272378.46875,-0.04296875,0.854248046875,-0.5185546875,-1.2817381620407104,2.563476324081421,0.3051757514476776,60.0,1293691.0,1.0
483837.1717733,290623.5625,305513.84375,315968.75,329855.78125,324214.40625,270988.90625,264016.5,272162.8125,-0.0439453125,0.8564453125,-0.517333984375,-1.1596678495407104,2.563476324081421,0.2441406100988388,60.0,1293692.0,1.0
483837.1717866,292246.21875,303836.75,312192.71875,327308.9375,321379.03125,270661.84375,261047.203125,271289.75,-0.04443359375,0.856201171875,-0.517822265625,-1.0681151151657104,2.563476324081421,0.2746581733226776,60.0,1293693.0,1.0
483837.1964891,290373.59375,302732.3125,309202.78125,325539.0625,319714.1875,270610.0,259703.5,270934.8125,-0.0439453125,0.8564453125,-0.518310546875,-1.1291502714157104,2.471923589706421,0.2746581733226776,60.0,1293694.0,1.0
483837.1965031,287663.03125,303761.90625,311166.6875,327037.40625,321532.8125,270916.03125,261857.3125,271610.625,-0.0458984375,0.85888671875,-0.51611328125,-1.1596678495407104,2.410888433456421,0.2136230319738388,60.0,1293695.0,1.0
483837.265728,287657.84375,305484.0,315399.65625,329736.71875,324374.25,271163.96875,264587.28125,272378.375,-0.046142578125,0.859619140625,-0.517333984375,-1.2512205839157104,2.349853277206421,0.2136230319738388,60.0,1293696.0,1.0
483837.2657694,290637.4375,305559.8125,316026.78125,329903.53125,324275.1875,271038.25,264066.03125,272211.28125,-0.044677734375,0.862060546875,-0.518310546875,-1.3732908964157104,2.380370855331421,0.1525878757238388,60.0,1293697.0,1.0
483837.2657794,292269.71875,303869.46875,312252.8125,327342.46875,321431.0625,270686.625,261082.421875,271320.875,-0.04541015625,0.8623046875,-0.51806640625,-1.3427733182907104,2.349853277206421,0.1220703050494194,60.0,1293698.0,1.0
483837.2680052,290375.1875,302713.34375,309199.84375,325517.40625,319705.96875,270587.8125,259677.65625,270915.75,-0.04541015625,0.86279296875,-0.515625,-1.4343260526657104,2.258300542831421,0.0,60.0,1293699.0,1.0
483837.2705557,287676.25,303746.28125,311148.625,327013.90625,321520.65625,270911.90625,261829.421875,271592.9375,-0.04443359375,0.8623046875,-0.5185546875,-1.4343260526657104,2.197265386581421,0.03051757626235485,60.0,1293700.0,1.0
483837.2755178,287639.78125,305461.5625,315379.1875,329711.3125,324358.25,271161.71875,264563.75,272385.34375,-0.047607421875,0.86376953125,-0.519775390625,-1.5869139432907104,2.166747808456421,-0.0610351525247097,60.0,1293701.0,1.0
483837.278141,290588.53125,305525.375,316014.25,329878.3125,324252.125,271010.90625,264036.96875,272198.03125,-0.044677734375,0.8662109375,-0.51904296875,-1.5869139432907104,2.166747808456421,0.0,60.0,1293702.0,1.0
483837.2805908,292271.5,303859.03125,312280.96875,327360.0,321437.5,270687.5,261079.65625,271323.09375,-0.045654296875,0.86669921875,-0.52197265625,-1.6479490995407104,2.166747808456421,0.0915527269244194,60.0,1293703.0,1.0
483837.2806323,290423.75,302709.0625,309228.875,325535.125,319716.5,270618.21875,259672.203125,270930.5,-0.046875,0.869384765625,-0.520751953125,-1.9226073026657104,2.105712652206421,0.0610351525247097,60.0,1293704.0,1.0
483837.2830393,287683.78125,303688.59375,311119.65625,326978.40625,321487.46875,270897.0625,261778.1875,271589.625,-0.04736328125,0.868896484375,-0.52392578125,-2.044677495956421,1.9226073026657104,0.03051757626235485,60.0,1293705.0,1.0
483837.2854933,287636.46875,305410.6875,315370.78125,329692.71875,324347.25,271142.21875,264539.25,272386.0625,-0.044677734375,0.867919921875,-0.522705078125,-2.105712652206421,1.8615721464157104,-0.03051757626235485,60.0,1293706.0,1.0
483837.287196,290594.96875,305493.03125,316048.84375,329894.40625,324271.78125,271014.28125,264046.1875,272200.375,-0.044189453125,0.867919921875,-0.521240234375,-2.075195074081421,1.8920897245407104,0.0,60.0,1293707.0,1.0
483837.2942667,292308.78125,303833.8125,312327.65625,327380.5625,321455.28125,270691.25,261086.171875,271318.71875,-0.044921875,0.869140625,-0.519775390625,-2.136230230331421,1.7700194120407104,0.03051757626235485,60.0,1293708.0,1.0
